[SAMPLE]
{
Sample	1
Well	2:9
FileName	12379-80_8807
SampleID	12379-80
SampleDescription
Date	02-Jan-2018
Time	17:17:19
JobCode	12379-80_8807
TaskCode
UserName
LabName
Instrument	ACQ-QDA#KAD2940
Conditions
Submitter	lzhao
SampleType	0
Plate	01TL,XY,SD,1: 6,2: 9,3: 90.0,4: 90.0,5:  0.0,6:  0.0,7:O,8:O,9:1265.0,10:845.0,11:660.0,12: 90.0,13:135.0,14:110.0
QCBatchName
QCFileName
QCDate
QCTime
QCStatus
QCReason1
QCReason2
Method	OpenAccess.olp
Process	Waters_PostRun2
MSTune
MSMethod	standard
InletMethod	AcN_TFA
PreRunMethod	GetRdy_AcN_TFA
PostRunMethod
SwitchMethod
FractionMethod
AcquisitionProcess
AcquisitionProcessParameters
AcquisitionProcessOptions
InjectionVolume	1.0000
ReportScheme	C:\MassLynx\SampleReport.ors
SampleReportEnable	0
SampleReportFormat	C:\MassLynx\SummaryReport.ors
AnalysisTime	3.0000
ColumnName	 ACQUITY UPLC® BEH C18 1.7µm
Spare1
Spare2
Spare3
Spare4
Spare5
[COMPOUND]
{
;Mono Mass		Formula
}
[FRACTIONRESULTS]
{
}
[FRACTION]
{
}
[FUNCTION]
{
Function	1
IonMode	ES+ 
Type	MS 
Description	(105:900) 
[SPECTRUM]
{
ProcDesc	Combine (179:191-(143:148+222:227))
State	Diversity fail
Peak ID	3
Peak Ref	1
Time	0.6163
TIC	3305571
BPI	772838
BPM	337.0006
Continuum	FALSE
Saved	FALSE
[MS]
{
;Mass	% BPI
120.94	0.838
130.11	55.862
131.15	5.214
151.04	22.909
152.13	2.152
168.96	2.493
169.82	1.643
199.11	3.033
227.05	18.142
228.15	1.633
234.98	0.812
236.06	0.570
239.14	0.602
259.98	2.507
260.91	1.026
281.05	3.194
290.87	3.418
292.03	0.883
292.92	5.119
294.03	0.791
312.87	1.271
314.98	1.739
316.12	0.532
322.98	23.335
324.07	0.734
324.96	25.208
325.98	3.429
327.03	0.747
328.14	0.776
337.00	100.000
337.98	7.685
339.00	88.977
340.05	11.364
341.15	0.619
345.01	0.591
359.01	1.810
361.08	1.916
405.00	1.296
407.06	2.073
427.01	5.190
428.97	4.438
432.20	0.520
453.44	1.153
476.18	1.539
481.19	1.098
482.93	0.644
520.30	2.043
564.43	0.764
626.91	0.637
640.82	0.572
737.75	0.502
738.98	0.577
832.90	1.095
}
}
[SPECTRUM]
{
ProcDesc	Combine (210:222-(174:179+253:258))
State	Diversity fail
Peak ID	6
Peak Ref	3
Time	0.7196
TIC	5134160
BPI	415574
BPM	539.9992
Continuum	FALSE
Saved	FALSE
[MS]
{
;Mass	% BPI
107.04	0.777
132.83	0.753
142.26	0.525
156.03	2.156
158.04	1.226
166.04	4.040
174.17	0.712
178.02	0.587
179.93	0.973
182.03	1.706
182.98	0.702
184.00	0.500
185.10	0.507
193.06	0.626
195.46	0.561
207.24	0.629
210.06	1.221
211.23	0.576
216.03	2.042
225.27	0.512
227.05	14.245
228.04	2.539
232.10	3.058
232.98	0.896
236.10	0.656
237.09	1.125
238.03	0.912
240.05	0.565
241.04	1.480
250.99	1.425
257.04	0.781
264.04	0.742
265.11	0.543
267.10	1.666
268.08	1.717
269.17	1.901
270.60	5.872
271.53	5.228
272.22	0.504
273.20	0.817
274.09	0.964
274.89	4.058
276.04	2.209
277.08	2.132
281.10	0.571
284.05	3.469
284.91	2.495
285.75	0.668
286.83	0.668
290.32	0.631
295.03	34.491
296.11	10.774
297.12	2.369
298.12	0.644
299.07	9.391
299.70	0.522
300.29	1.513
301.15	1.856
309.07	1.260
312.00	1.492
313.15	2.452
314.17	0.876
317.06	22.785
318.05	3.450
319.99	0.521
323.10	0.726
323.90	0.756
324.85	0.647
329.12	29.848
330.10	4.582
331.07	1.931
332.18	0.547
333.11	2.382
334.19	0.910
335.16	1.248
337.03	3.362
337.98	5.093
339.05	12.843
340.04	7.690
340.98	1.673
343.03	1.563
346.14	2.858
346.99	0.688
348.08	5.509
350.07	1.305
351.09	3.431
352.10	1.500
353.06	1.872
354.18	2.150
355.01	2.067
357.13	1.169
357.98	1.190
358.95	11.877
360.12	2.117
360.99	10.664
362.15	4.483
363.10	2.710
364.29	0.841
365.28	0.682
368.47	1.152
371.23	0.581
372.20	0.543
372.99	56.714
373.96	6.924
375.01	66.720
376.08	10.545
380.03	0.601
380.84	1.780
381.97	0.517
383.18	0.838
389.09	0.927
389.97	5.646
390.99	1.431
392.05	7.951
393.15	0.841
394.02	1.381
394.96	42.220
396.05	5.827
396.98	38.681
398.03	5.858
398.98	1.555
400.16	1.134
401.14	0.694
402.26	0.516
405.11	1.541
406.11	2.277
407.07	0.826
408.08	4.001
409.11	3.395
409.92	1.341
410.63	2.909
411.30	1.042
416.08	0.591
417.01	0.989
420.03	1.677
421.02	1.288
421.97	0.828
423.08	0.521
424.02	0.889
428.11	0.798
429.21	2.727
432.99	1.382
434.12	1.773
435.15	1.116
436.00	2.684
437.88	0.897
445.18	1.251
448.01	1.238
453.03	1.262
457.90	2.680
458.87	1.522
459.93	1.096
461.13	0.806
462.14	7.123
467.89	0.820
469.64	1.260
472.04	30.085
472.95	5.100
474.04	29.573
474.56	0.519
475.11	5.344
476.03	1.864
477.05	2.246
478.22	0.975
486.10	0.582
493.73	0.555
495.93	7.467
498.03	5.588
503.15	1.108
507.56	0.504
513.99	4.008
514.94	1.461
521.17	38.198
522.28	10.349
523.54	0.778
526.05	1.134
527.06	1.437
527.68	0.743
528.24	1.412
530.06	0.711
530.88	1.270
531.99	1.528
536.00	2.150
536.83	0.502
537.69	1.106
538.60	1.159
540.00	100.000
540.99	17.926
541.99	96.115
543.01	27.284
544.02	4.451
544.87	0.599
545.54	1.064
547.79	1.050
549.84	1.524
551.05	0.873
552.06	0.668
553.94	1.244
554.97	1.325
556.08	1.596
557.97	0.502
562.02	20.524
562.89	3.113
563.95	22.964
564.94	3.607
565.90	1.244
566.82	0.954
567.85	0.976
569.67	0.525
571.36	0.632
572.89	1.107
574.05	0.736
577.44	1.265
580.25	1.824
582.08	1.149
582.97	0.695
584.17	1.194
585.80	0.963
586.58	0.581
591.40	0.538
594.81	0.970
597.23	0.784
605.04	1.871
606.44	1.349
609.23	0.510
611.23	1.178
612.12	0.737
613.04	0.578
615.05	0.528
616.98	0.711
631.84	0.756
633.01	1.458
634.96	1.311
639.17	0.577
645.22	2.682
647.22	0.565
653.97	0.529
655.01	0.516
655.98	0.622
665.11	1.122
666.45	0.861
667.87	1.427
669.23	0.951
673.34	0.530
676.00	0.709
676.97	0.675
680.13	0.716
680.91	1.176
681.82	0.652
683.34	0.920
686.45	0.594
687.26	1.148
688.89	0.950
690.99	0.731
693.32	0.598
694.54	1.794
695.31	0.747
699.90	0.929
701.90	0.947
703.27	1.221
708.52	0.793
709.60	1.737
710.52	2.320
711.44	1.054
712.66	0.998
715.41	0.578
723.77	1.442
724.70	1.406
725.60	0.718
727.56	1.329
730.50	0.739
732.75	0.524
733.95	0.722
735.58	0.640
736.44	0.536
740.47	0.748
741.67	0.678
743.54	0.680
750.32	0.739
751.57	0.667
752.91	1.080
754.42	0.533
755.14	2.032
756.20	0.591
759.88	0.551
763.94	1.549
765.13	0.855
766.75	1.478
767.75	0.709
768.88	3.368
770.22	1.717
771.07	1.503
773.96	0.542
775.82	0.524
776.63	0.503
778.16	0.725
779.97	0.873
783.97	0.815
785.98	0.886
787.74	0.504
788.72	1.965
789.34	0.798
790.05	1.777
790.84	3.647
791.52	0.528
792.08	1.921
793.07	5.278
793.97	1.560
795.05	0.572
796.10	0.726
797.36	0.990
798.60	0.996
800.40	0.570
803.96	0.997
805.05	0.552
806.05	0.809
806.81	0.732
808.05	0.958
810.88	2.404
811.84	0.897
812.86	4.833
814.09	1.445
815.08	1.990
815.78	0.701
820.34	0.546
828.70	0.989
829.43	1.751
831.29	1.166
832.99	0.645
834.01	0.814
839.39	0.637
840.30	0.652
848.61	0.673
861.91	0.547
863.05	0.618
885.84	0.659
889.96	0.507
}
}
[SPECTRUM]
{
ProcDesc	Combine (231:243-(195:200+274:279))
State	Diversity fail
Peak ID	8
Peak Ref	4
Time	0.7895
TIC	8004105
BPI	1654191
BPM	306.9547
Continuum	FALSE
Saved	FALSE
[MS]
{
;Mass	% BPI
150.99	2.893
165.95	1.043
167.07	11.690
168.11	0.775
182.03	1.029
184.07	0.811
216.03	0.814
280.01	0.546
283.91	0.539
304.96	94.530
305.96	10.085
306.95	100.000
308.01	10.576
308.98	0.975
316.14	57.727
317.15	9.788
318.12	2.107
334.14	1.442
337.97	3.744
339.97	3.734
340.92	1.037
345.13	1.006
356.17	4.351
357.09	0.925
360.21	2.775
362.11	1.000
363.06	0.897
365.01	1.195
372.99	2.226
374.96	2.752
376.06	0.802
385.17	5.329
386.16	1.301
387.19	0.572
395.03	1.495
396.95	1.706
398.10	1.573
399.19	1.202
408.98	0.971
410.95	0.948
440.02	54.548
441.05	10.867
442.03	53.764
443.05	12.114
444.09	1.524
486.87	0.676
507.17	0.946
522.02	0.516
}
}
[SPECTRUM]
{
ProcDesc	Combine (263:275-(227:232+306:311))
State	Diversity fail
Peak ID	10
Peak Ref	5
Time	0.8961
TIC	3362475
BPI	469575
BPM	465.9861
Continuum	FALSE
Saved	FALSE
[MS]
{
;Mass	% BPI
112.06	0.619
124.07	0.522
129.91	0.827
155.95	0.670
159.00	1.148
167.05	1.407
170.30	0.676
181.04	0.529
222.98	1.737
234.96	6.452
236.06	0.741
250.07	0.511
250.93	0.570
279.00	4.740
280.12	0.748
285.09	2.892
294.06	0.565
297.11	6.340
298.10	0.728
305.00	5.308
307.03	3.297
312.17	0.789
313.03	0.696
329.12	0.565
332.17	2.566
333.12	0.796
349.04	2.507
350.02	0.702
350.98	2.247
351.93	0.568
352.95	0.554
356.60	0.868
361.20	95.353
366.06	0.516
367.15	2.339
368.38	0.795
377.25	1.306
383.15	43.834
384.17	8.101
385.06	1.778
386.04	1.098
390.28	0.775
399.14	0.650
404.16	0.709
416.12	0.677
419.21	4.656
420.23	0.746
421.16	4.153
423.10	2.034
424.08	0.542
424.92	1.114
427.13	17.473
428.27	1.831
430.10	4.963
431.07	4.983
435.24	1.455
437.22	0.981
438.86	0.676
440.03	1.214
441.13	3.664
443.05	1.391
443.97	1.243
445.06	1.053
446.24	1.180
448.03	0.920
449.15	0.957
455.02	2.105
457.11	3.764
462.08	1.383
462.96	0.884
464.02	94.596
465.01	15.419
465.99	100.000
467.02	22.699
468.06	3.755
469.04	1.100
470.16	1.121
471.15	4.208
472.03	0.969
482.05	47.058
483.07	8.777
484.00	46.420
485.02	11.189
485.69	0.502
486.25	3.069
487.10	2.233
489.97	0.731
491.10	0.935
497.05	0.728
500.31	0.660
501.70	1.331
505.49	0.540
513.06	2.767
514.31	0.833
515.15	1.013
534.65	0.562
548.60	0.647
568.34	3.117
569.13	2.137
570.15	0.619
577.79	0.550
581.51	0.617
583.09	0.503
585.09	2.091
594.22	4.955
598.42	0.941
601.21	1.998
602.01	1.046
602.97	1.795
603.97	2.708
604.84	0.972
608.32	1.255
610.28	1.367
613.90	0.642
614.81	0.520
615.89	0.605
623.26	1.198
626.30	0.983
628.94	0.673
636.12	0.580
641.40	0.523
648.92	0.781
650.12	1.254
651.13	0.899
665.21	0.518
696.92	1.043
720.85	0.572
727.36	3.893
728.30	1.550
729.26	1.468
736.03	0.833
743.23	8.180
744.06	4.437
744.96	1.027
746.27	0.596
751.67	0.516
764.46	0.633
821.85	0.735
857.15	0.698
883.49	0.595
888.44	0.648
889.18	0.706
889.99	1.049
}
}
[SPECTRUM]
{
ProcDesc	Combine (278:290-(242:247+321:326))
State	Diversity fail
Peak ID	11
Peak Ref	6
Time	0.9461
TIC	5561754
BPI	3913291
BPM	489.1380
Continuum	FALSE
Saved	FALSE
[MS]
{
;Mass	% BPI
320.95	1.358
322.95	1.313
332.10	1.315
377.04	0.534
378.97	0.513
482.06	1.210
483.99	1.427
489.14	100.000
490.19	27.976
491.25	3.593
492.30	0.532
494.15	1.069
522.10	0.627
538.16	0.659
}
}
[SPECTRUM]
{
ProcDesc	Combine (289:301-(253:258+332:337))
State	Diversity fail
Peak ID	12
Peak Ref	7
Time	0.9828
TIC	17391202
BPI	5999383
BPM	509.9490
Continuum	FALSE
Saved	FALSE
[MS]
{
;Mass	% BPI
151.05	12.021
152.04	0.957
306.04	7.263
307.09	0.640
308.03	2.464
375.26	0.582
489.13	7.036
490.20	1.156
493.97	0.500
495.96	0.675
507.98	87.339
508.96	14.442
509.95	100.000
511.03	19.598
512.06	2.126
529.97	12.580
530.93	1.386
531.97	12.808
533.03	2.453
563.17	0.629
571.00	1.482
572.99	1.747
}
}
[CHROMATOGRAM]
{
TraceNumber	1
Description	MS ES+ :TIC
ProcDesc
MaxIntensity	57827924.00
[TRACE]
{
0.00327	2.792
0.00660	2.300
0.00993	2.372
0.01327	2.465
0.01660	2.200
0.01993	2.578
0.02325	2.367
0.02658	2.336
0.02992	2.298
0.03325	2.182
0.03658	2.380
0.03992	2.250
0.04325	2.270
0.04658	2.259
0.04992	2.284
0.05325	2.113
0.05657	2.165
0.05990	2.333
0.06323	2.384
0.06657	2.457
0.06990	2.523
0.07323	2.493
0.07657	2.353
0.07990	2.554
0.08323	2.579
0.08655	2.342
0.08988	2.125
0.09322	2.098
0.09655	2.273
0.09988	2.418
0.10322	2.530
0.10655	2.447
0.10988	2.506
0.11322	2.552
0.11655	2.271
0.11987	2.451
0.12320	2.350
0.12653	1.917
0.12987	2.424
0.13320	2.252
0.13653	2.581
0.13987	2.451
0.14320	2.332
0.14653	2.224
0.14985	2.620
0.15318	2.449
0.15652	2.676
0.15985	2.324
0.16318	2.066
0.16652	2.516
0.16985	2.262
0.17318	2.356
0.17652	2.217
0.17985	2.402
0.18317	2.573
0.18650	2.893
0.18983	2.822
0.19317	2.419
0.19650	2.261
0.19983	2.086
0.20317	2.494
0.20650	2.289
0.20983	2.514
0.21317	2.311
0.21648	2.326
0.21982	2.667
0.22315	2.280
0.22648	2.031
0.22982	2.000
0.23315	1.747
0.23648	1.971
0.23982	2.120
0.24315	1.868
0.24647	2.088
0.24980	2.433
0.25313	5.379
0.25647	8.889
0.25980	8.505
0.26313	7.661
0.26647	6.952
0.26980	6.626
0.27313	5.858
0.27647	5.143
0.27978	4.114
0.28312	3.465
0.28645	2.947
0.28978	2.847
0.29312	3.018
0.29645	2.737
0.29978	2.261
0.30312	2.483
0.30645	2.751
0.30978	2.275
0.31310	2.407
0.31643	2.597
0.31977	2.773
0.32310	2.536
0.32643	2.560
0.32977	2.548
0.33310	2.366
0.33643	2.306
0.33977	2.474
0.34308	2.344
0.34642	2.682
0.34975	2.566
0.35308	3.045
0.35642	3.667
0.35975	5.109
0.36308	5.449
0.36642	4.793
0.36975	5.650
0.37308	6.608
0.37640	7.836
0.37973	8.879
0.38307	8.958
0.38640	7.969
0.38973	6.348
0.39307	4.443
0.39640	3.934
0.39973	4.091
0.40307	3.629
0.40640	3.441
0.40972	3.131
0.41305	2.742
0.41638	2.929
0.41972	2.973
0.42305	3.176
0.42638	2.862
0.42972	3.045
0.43305	2.746
0.43638	2.845
0.43970	2.679
0.44303	2.698
0.44637	2.897
0.44970	2.747
0.45303	2.667
0.45637	2.964
0.45970	2.955
0.46303	3.374
0.46637	3.052
0.46970	3.574
0.47302	3.475
0.47635	2.779
0.47968	3.113
0.48302	2.867
0.48635	2.999
0.48968	2.723
0.49302	2.533
0.49635	2.325
0.49968	2.378
0.50300	2.617
0.50633	2.657
0.50967	2.558
0.51300	2.859
0.51633	2.971
0.51967	3.033
0.52300	3.323
0.52633	3.037
0.52967	3.349
0.53300	3.222
0.53632	2.879
0.53965	2.774
0.54298	2.751
0.54632	3.039
0.54965	3.969
0.55298	4.353
0.55632	4.625
0.55965	4.023
0.56298	4.036
0.56632	3.899
0.56963	5.157
0.57297	9.964
0.57630	11.578
0.57963	8.413
0.58297	6.475
0.58630	5.377
0.58963	5.845
0.59297	6.431
0.59630	6.445
0.59962	6.491
0.60295	7.109
0.60628	8.707
0.60962	10.770
0.61295	12.192
0.61628	16.301
0.61962	15.299
0.62295	11.955
0.62628	9.040
0.62962	8.099
0.63293	7.302
0.63627	7.298
0.63960	9.664
0.64293	11.635
0.64627	14.943
0.64960	15.828
0.65293	14.411
0.65627	12.433
0.65960	9.484
0.66293	9.879
0.66625	9.247
0.66958	9.854
0.67292	10.751
0.67625	12.008
0.67958	14.606
0.68292	10.803
0.68625	8.813
0.68958	8.158
0.69292	9.074
0.69623	9.910
0.69957	11.257
0.70290	12.411
0.70623	14.396
0.70957	15.566
0.71290	15.290
0.71623	20.247
0.71957	21.044
0.72290	13.613
0.72623	11.246
0.72955	15.264
0.73288	19.607
0.73622	16.068
0.73955	12.917
0.74288	10.585
0.74622	10.942
0.74955	11.960
0.75288	13.472
0.75622	12.551
0.75953	11.140
0.76287	9.776
0.76620	9.612
0.76953	9.967
0.77287	11.956
0.77620	14.684
0.77953	14.396
0.78287	17.487
0.78620	28.998
0.78953	35.732
0.79285	32.713
0.79618	25.795
0.79952	20.515
0.80285	15.953
0.80618	15.259
0.80952	14.872
0.81285	14.416
0.81618	13.351
0.81952	13.177
0.82285	12.541
0.82617	11.743
0.82950	12.013
0.83283	12.202
0.83617	13.076
0.83950	13.166
0.84283	11.963
0.84617	12.187
0.84950	11.368
0.85283	10.761
0.85615	10.556
0.85948	10.247
0.86282	9.383
0.86615	7.344
0.86948	7.467
0.87282	7.484
0.87615	8.138
0.87948	8.573
0.88282	8.641
0.88615	9.493
0.88947	11.815
0.89280	15.025
0.89613	18.062
0.89947	16.574
0.90280	16.144
0.90613	13.644
0.90947	11.668
0.91280	11.371
0.91613	11.862
0.91947	12.164
0.92278	13.070
0.92612	14.206
0.92945	12.528
0.93278	11.167
0.93612	11.912
0.93945	16.328
0.94278	21.520
0.94612	24.128
0.94945	23.984
0.95277	21.339
0.95610	16.486
0.95943	13.531
0.96277	12.455
0.96610	11.569
0.96943	11.812
0.97277	11.333
0.97610	13.900
0.97943	51.771
0.98277	100.000
0.98608	89.484
0.98942	74.347
0.99275	44.857
0.99608	33.589
0.99942	25.241
1.00275	20.033
1.00608	15.535
1.00942	13.877
1.01275	13.802
1.01608	12.116
1.01940	12.443
1.02273	12.316
1.02607	12.218
1.02940	11.480
1.03273	12.568
1.03607	11.336
1.03940	10.505
1.04273	10.634
1.04607	11.299
1.04938	11.360
1.05272	11.527
1.05605	10.581
1.05938	10.088
1.06272	10.094
1.06605	10.250
1.06938	10.100
1.07272	10.258
1.07605	10.387
1.07938	10.606
1.08270	11.579
1.08603	12.328
1.08937	11.924
1.09270	11.489
1.09603	10.255
1.09937	9.759
1.10270	9.999
1.10603	9.769
1.10937	10.049
1.11268	11.224
1.11602	11.198
1.11935	9.261
1.12268	7.579
1.12602	8.046
1.12935	7.927
1.13268	7.426
1.13602	7.464
1.13935	7.521
1.14268	9.217
1.14600	10.545
1.14933	11.739
1.15267	11.228
1.15600	9.989
1.15933	9.616
1.16267	9.442
1.16600	9.940
1.16933	8.871
1.17267	7.451
1.17600	7.562
1.17932	7.513
1.18265	7.175
1.18598	7.470
1.18932	7.715
1.19265	8.939
1.19598	12.259
1.19932	12.019
1.20265	10.786
1.20598	11.692
1.20930	12.005
1.21263	11.755
1.21597	10.092
1.21930	9.158
1.22263	7.834
1.22597	6.565
1.22930	7.061
1.23263	7.519
1.23597	7.971
1.23930	8.123
1.24262	8.839
1.24595	8.965
1.24928	8.840
1.25262	8.176
1.25595	7.648
1.25928	7.270
1.26262	7.684
1.26595	8.319
1.26928	8.692
1.27262	7.496
1.27593	5.786
1.27927	6.159
1.28260	6.340
1.28593	6.369
1.28927	6.792
1.29260	7.024
1.29593	7.208
1.29927	7.547
1.30260	7.957
1.30592	7.183
1.30925	6.437
1.31258	6.214
1.31592	6.007
1.31925	5.343
1.32258	5.582
1.32592	5.191
1.32925	5.884
1.33258	6.296
1.33592	7.367
1.33923	9.149
1.34257	8.446
1.34590	8.227
1.34923	6.998
1.35257	6.824
1.35590	6.643
1.35923	6.407
1.36257	5.915
1.36590	5.869
1.36923	5.826
1.37255	5.924
1.37588	5.661
1.37922	5.427
1.38255	5.990
1.38588	6.495
1.38922	6.537
1.39255	6.116
1.39588	5.708
1.39922	5.817
1.40253	5.039
1.40587	4.434
1.40920	3.793
1.41253	4.700
1.41587	4.374
1.41920	4.458
1.42253	4.141
1.42587	4.303
1.42920	4.966
1.43253	4.579
1.43585	4.714
1.43918	4.464
1.44252	4.205
1.44585	4.124
1.44918	4.201
1.45252	4.272
1.45585	4.347
1.45918	4.072
1.46252	4.336
1.46583	4.514
1.46917	4.674
1.47250	5.012
1.47583	5.261
1.47917	5.284
1.48250	4.989
1.48583	4.907
1.48917	4.935
1.49250	4.846
1.49583	4.834
1.49915	5.111
1.50248	4.603
1.50582	4.553
1.50915	4.843
1.51248	4.549
1.51582	4.960
1.51915	4.633
1.52248	4.451
1.52582	4.465
1.52915	3.961
1.53247	3.811
1.53580	3.183
1.53913	3.254
1.54247	3.539
1.54580	3.428
1.54913	3.126
1.55247	3.485
1.55580	3.526
1.55913	3.505
1.56245	3.511
1.56578	3.245
1.56912	3.310
1.57245	3.218
1.57578	3.361
1.57912	3.280
1.58245	3.685
1.58578	3.241
1.58912	3.543
1.59245	3.508
1.59577	3.830
1.59910	3.623
1.60243	3.936
1.60577	3.735
1.60910	3.974
1.61243	4.311
1.61577	4.712
1.61910	4.372
1.62243	4.438
1.62577	4.407
1.62908	4.673
1.63242	4.881
1.63575	4.494
1.63908	5.113
1.64242	4.726
1.64575	4.514
1.64908	4.885
1.65242	4.601
1.65575	4.642
1.65907	4.558
1.66240	4.830
1.66573	4.726
1.66907	4.212
1.67240	4.624
1.67573	4.387
1.67907	4.053
1.68240	4.294
1.68573	4.218
1.68907	4.214
1.69238	3.833
1.69572	3.980
1.69905	4.125
1.70238	3.836
1.70572	4.153
1.70905	3.788
1.71238	3.912
1.71572	3.984
1.71905	4.060
1.72237	4.018
1.72570	3.687
1.72903	4.082
1.73237	4.217
1.73570	4.216
1.73903	4.283
1.74237	4.181
1.74570	4.351
1.74903	4.269
1.75237	4.287
1.75568	4.593
1.75902	4.574
1.76235	4.275
1.76568	4.828
1.76902	4.511
1.77235	3.957
1.77568	3.537
1.77902	3.593
1.78235	4.119
1.78568	3.730
1.78900	3.593
1.79233	3.678
1.79567	3.762
1.79900	4.018
1.80233	3.932
1.80567	3.770
1.80900	4.148
1.81233	4.251
1.81567	4.219
1.81898	4.867
1.82232	4.565
1.82565	4.450
1.82898	4.364
1.83232	4.675
1.83565	4.751
1.83898	4.781
1.84232	4.829
1.84565	5.012
1.84898	4.782
1.85232	4.590
1.85563	4.658
1.85897	4.377
1.86230	4.537
1.86563	4.306
1.86897	4.274
1.87230	4.757
1.87563	4.489
1.87897	4.568
1.88230	4.232
1.88562	4.253
1.88895	4.536
1.89228	4.147
1.89562	4.132
1.89895	4.304
1.90228	4.241
1.90562	4.137
1.90895	4.077
1.91228	4.115
1.91560	4.386
1.91893	4.264
1.92227	4.223
1.92560	4.641
1.92893	4.383
1.93227	4.477
1.93560	4.453
1.93893	4.704
1.94227	4.925
1.94560	4.889
1.94892	4.988
1.95225	5.275
1.95558	5.164
1.95892	4.811
1.96225	5.050
1.96558	5.228
1.96892	5.838
1.97225	6.561
1.97558	7.499
1.97892	8.617
1.98223	8.595
1.98557	9.909
1.98890	10.331
1.99223	10.876
1.99557	10.930
1.99890	11.147
2.00223	11.576
}
[PEAK]
{
Peak ID	3
Peak Ref	1
Time	0.6163
Peak	0.5896	0.6329
Intensity	3380037.00	4222504.50
Height	5527848.00
AreaAbs	77014.4688
Area %BP	11.09
Area %Total	5.14
Width	0.04
}
[PEAK]
{
Peak ID	6
Peak Ref	3
Time	0.7196
Peak	0.6896	0.7662
Intensity	4717363.00	5558432.00
Height	7122969.00
AreaAbs	198213.6563
Area %BP	28.54
Area %Total	13.22
Width	0.08
}
[PEAK]
{
Peak ID	8
Peak Ref	4
Time	0.7895
Peak	0.7662	0.8262
Intensity	5558432.00	6790444.00
Height	14625084.00
AreaAbs	250920.6250
Area %BP	36.13
Area %Total	16.74
Width	0.06
}
[PEAK]
{
Peak ID	10
Peak Ref	5
Time	0.8961
Peak	0.8728	0.9128
Intensity	4327885.00	5075435.50
Height	5680847.00
AreaAbs	95665.4219
Area %BP	13.78
Area %Total	6.38
Width	0.04
}
[PEAK]
{
Peak ID	11
Peak Ref	6
Time	0.9461
Peak	0.9128	0.9694
Intensity	5075435.50	6134282.50
Height	8254290.50
AreaAbs	183109.0313
Area %BP	26.37
Area %Total	12.21
Width	0.06
}
[PEAK]
{
Peak ID	12
Peak Ref	7
Time	0.9828
Peak	0.9694	1.0161
Intensity	6134282.50	7006477.50
Height	51444352.00
AreaAbs	694412.8125
Area %BP	100.00
Area %Total	46.31
Width	0.05
}
}
}
[FUNCTION]
{
Function	2
IonMode
Type	DAD 
Description	(210:400) 
[CHROMATOGRAM]
{
TraceNumber	2
Description	DAD: TIC
ProcDesc
MaxIntensity	88865176.00
[TRACE]
{
0.00000	0.000
0.00167	0.011
0.00333	0.024
0.00500	0.038
0.00667	0.056
0.00833	0.075
0.01000	0.095
0.01167	0.113
0.01333	0.127
0.01500	0.139
0.01667	0.149
0.01833	0.157
0.02000	0.164
0.02167	0.168
0.02333	0.167
0.02500	0.160
0.02667	0.147
0.02833	0.130
0.03000	0.114
0.03167	0.100
0.03333	0.090
0.03500	0.083
0.03667	0.074
0.03833	0.061
0.04000	0.045
0.04167	0.029
0.04333	0.017
0.04500	0.012
0.04667	0.011
0.04833	0.012
0.05000	0.014
0.05167	0.015
0.05333	0.015
0.05500	0.015
0.05667	0.014
0.05833	0.011
0.06000	0.004
0.06167	-0.003
0.06333	-0.009
0.06500	-0.015
0.06667	-0.019
0.06833	-0.022
0.07000	-0.022
0.07167	-0.021
0.07333	-0.016
0.07500	-0.009
0.07667	-0.001
0.07833	0.008
0.08000	0.017
0.08167	0.028
0.08333	0.040
0.08500	0.054
0.08667	0.069
0.08833	0.083
0.09000	0.097
0.09167	0.108
0.09333	0.116
0.09500	0.124
0.09667	0.131
0.09833	0.139
0.10000	0.148
0.10167	0.156
0.10333	0.165
0.10500	0.171
0.10667	0.168
0.10833	0.155
0.11000	0.132
0.11167	0.102
0.11333	0.071
0.11500	0.041
0.11667	0.016
0.11833	-0.001
0.12000	-0.007
0.12167	-0.005
0.12333	0.000
0.12500	0.005
0.12667	0.006
0.12833	0.004
0.13000	-0.003
0.13167	-0.010
0.13333	-0.018
0.13500	-0.024
0.13667	-0.029
0.13833	-0.032
0.14000	-0.033
0.14167	-0.033
0.14333	-0.031
0.14500	-0.027
0.14667	-0.020
0.14833	-0.012
0.15000	-0.003
0.15167	0.007
0.15333	0.019
0.15500	0.032
0.15667	0.047
0.15833	0.062
0.16000	0.078
0.16167	0.093
0.16333	0.105
0.16500	0.114
0.16667	0.121
0.16833	0.126
0.17000	0.133
0.17167	0.140
0.17333	0.148
0.17500	0.156
0.17667	0.162
0.17833	0.162
0.18000	0.153
0.18167	0.133
0.18333	0.107
0.18500	0.076
0.18667	0.047
0.18833	0.021
0.19000	0.003
0.19167	-0.006
0.19333	-0.008
0.19500	-0.005
0.19667	-0.001
0.19833	-0.000
0.20000	-0.002
0.20167	-0.008
0.20333	-0.015
0.20500	-0.023
0.20667	-0.029
0.20833	-0.034
0.21000	-0.038
0.21167	-0.039
0.21333	-0.037
0.21500	-0.030
0.21667	-0.015
0.21833	0.009
0.22000	0.045
0.22167	0.094
0.22333	0.148
0.22500	0.200
0.22667	0.241
0.22833	0.267
0.23000	0.281
0.23167	0.285
0.23333	0.280
0.23500	0.265
0.23667	0.239
0.23833	0.203
0.24000	0.162
0.24167	0.119
0.24333	0.079
0.24500	0.049
0.24667	0.030
0.24833	0.024
0.25000	0.027
0.25167	0.031
0.25333	0.030
0.25500	0.051
0.25667	0.143
0.25833	0.336
0.26000	0.591
0.26167	0.821
0.26333	0.970
0.26500	1.042
0.26667	1.066
0.26833	1.056
0.27000	1.004
0.27167	0.887
0.27333	0.685
0.27500	0.408
0.27667	0.098
0.27833	-0.186
0.28000	-0.399
0.28167	-0.527
0.28333	-0.579
0.28500	-0.578
0.28667	-0.543
0.28833	-0.485
0.29000	-0.407
0.29167	-0.315
0.29333	-0.218
0.29500	-0.129
0.29667	-0.057
0.29833	-0.001
0.30000	0.044
0.30167	0.083
0.30333	0.116
0.30500	0.144
0.30667	0.166
0.30833	0.179
0.31000	0.181
0.31167	0.172
0.31333	0.153
0.31500	0.130
0.31667	0.106
0.31833	0.086
0.32000	0.071
0.32167	0.060
0.32333	0.050
0.32500	0.041
0.32667	0.033
0.32833	0.029
0.33000	0.031
0.33167	0.042
0.33333	0.059
0.33500	0.080
0.33667	0.103
0.33833	0.129
0.34000	0.162
0.34167	0.210
0.34333	0.281
0.34500	0.386
0.34667	0.546
0.34833	0.826
0.35000	1.417
0.35167	2.461
0.35333	3.682
0.35500	4.374
0.35667	3.974
0.35833	2.714
0.36000	1.336
0.36167	0.408
0.36333	-0.023
0.36500	-0.156
0.36667	-0.144
0.36833	-0.068
0.37000	0.006
0.37167	0.041
0.37333	0.028
0.37500	-0.019
0.37667	-0.087
0.37833	-0.171
0.38000	-0.261
0.38167	-0.348
0.38333	-0.423
0.38500	-0.480
0.38667	-0.515
0.38833	-0.520
0.39000	-0.492
0.39167	-0.432
0.39333	-0.354
0.39500	-0.276
0.39667	-0.209
0.39833	-0.157
0.40000	-0.110
0.40167	-0.063
0.40333	-0.014
0.40500	0.029
0.40667	0.059
0.40833	0.074
0.41000	0.079
0.41167	0.077
0.41333	0.071
0.41500	0.059
0.41667	0.041
0.41833	0.017
0.42000	-0.010
0.42167	-0.039
0.42333	-0.066
0.42500	-0.088
0.42667	-0.106
0.42833	-0.120
0.43000	-0.127
0.43167	-0.124
0.43333	-0.113
0.43500	-0.099
0.43667	-0.091
0.43833	-0.094
0.44000	-0.109
0.44167	-0.134
0.44333	-0.160
0.44500	-0.182
0.44667	-0.199
0.44833	-0.209
0.45000	-0.215
0.45167	-0.217
0.45333	-0.215
0.45500	-0.207
0.45667	-0.194
0.45833	-0.175
0.46000	-0.148
0.46167	-0.116
0.46333	-0.082
0.46500	-0.051
0.46667	-0.027
0.46833	-0.016
0.47000	-0.015
0.47167	-0.024
0.47333	-0.037
0.47500	-0.054
0.47667	-0.074
0.47833	-0.093
0.48000	-0.108
0.48167	-0.113
0.48333	-0.103
0.48500	-0.078
0.48667	-0.044
0.48833	-0.008
0.49000	0.023
0.49167	0.045
0.49333	0.059
0.49500	0.067
0.49667	0.067
0.49833	0.057
0.50000	0.036
0.50167	0.010
0.50333	-0.017
0.50500	-0.041
0.50667	-0.062
0.50833	-0.076
0.51000	-0.080
0.51167	-0.073
0.51333	-0.056
0.51500	-0.036
0.51667	-0.019
0.51833	-0.011
0.52000	-0.015
0.52167	-0.033
0.52333	-0.060
0.52500	-0.094
0.52667	-0.131
0.52833	-0.169
0.53000	-0.200
0.53167	-0.217
0.53333	-0.213
0.53500	-0.188
0.53667	-0.150
0.53833	-0.109
0.54000	-0.068
0.54167	-0.030
0.54333	0.007
0.54500	0.048
0.54667	0.093
0.54833	0.137
0.55000	0.167
0.55167	0.167
0.55333	0.127
0.55500	0.047
0.55667	-0.059
0.55833	-0.172
0.56000	-0.271
0.56167	-0.339
0.56333	-0.367
0.56500	-0.340
0.56667	-0.239
0.56833	-0.061
0.57000	0.146
0.57167	0.289
0.57333	0.294
0.57500	0.166
0.57667	-0.019
0.57833	-0.169
0.58000	-0.230
0.58167	-0.187
0.58333	-0.065
0.58500	0.093
0.58667	0.248
0.58833	0.374
0.59000	0.454
0.59167	0.468
0.59333	0.405
0.59500	0.279
0.59667	0.134
0.59833	0.033
0.60000	0.030
0.60167	0.138
0.60333	0.318
0.60500	0.496
0.60667	0.628
0.60833	0.755
0.61000	0.966
0.61167	1.265
0.61333	1.490
0.61500	1.448
0.61667	1.101
0.61833	0.612
0.62000	0.187
0.62167	-0.082
0.62333	-0.212
0.62500	-0.260
0.62667	-0.262
0.62833	-0.210
0.63000	-0.026
0.63167	0.385
0.63333	1.053
0.63500	1.866
0.63667	2.662
0.63833	3.318
0.64000	3.784
0.64167	4.009
0.64333	3.925
0.64500	3.499
0.64667	2.794
0.64833	1.968
0.65000	1.197
0.65167	0.594
0.65333	0.189
0.65500	-0.050
0.65667	-0.178
0.65833	-0.242
0.66000	-0.275
0.66167	-0.298
0.66333	-0.312
0.66500	-0.308
0.66667	-0.212
0.66833	0.383
0.67000	2.410
0.67167	6.753
0.67333	12.954
0.67500	18.587
0.67667	20.826
0.67833	18.743
0.68000	14.037
0.68167	9.279
0.68333	5.996
0.68500	4.240
0.68667	3.397
0.68833	2.952
0.69000	2.657
0.69167	2.435
0.69333	2.253
0.69500	2.081
0.69667	1.922
0.69833	1.826
0.70000	1.857
0.70167	2.028
0.70333	2.277
0.70500	2.518
0.70667	2.686
0.70833	2.844
0.71000	3.326
0.71167	4.536
0.71333	6.417
0.71500	8.052
0.71667	8.341
0.71833	6.987
0.72000	4.808
0.72167	2.892
0.72333	1.898
0.72500	1.989
0.72667	3.007
0.72833	4.399
0.73000	5.280
0.73167	5.042
0.73333	3.848
0.73500	2.482
0.73667	1.620
0.73833	1.405
0.74000	1.553
0.74167	1.738
0.74333	1.806
0.74500	1.748
0.74667	1.604
0.74833	1.391
0.75000	1.122
0.75167	0.821
0.75333	0.521
0.75500	0.256
0.75667	0.044
0.75833	-0.105
0.76000	-0.193
0.76167	-0.227
0.76333	-0.222
0.76500	-0.197
0.76667	-0.168
0.76833	-0.145
0.77000	-0.132
0.77167	-0.129
0.77333	-0.131
0.77500	-0.109
0.77667	0.071
0.77833	0.749
0.78000	2.363
0.78167	5.038
0.78333	8.184
0.78500	10.636
0.78667	11.411
0.78833	10.393
0.79000	8.343
0.79167	6.244
0.79333	4.656
0.79500	3.571
0.79667	2.741
0.79833	2.021
0.80000	1.430
0.80167	1.006
0.80333	0.731
0.80500	0.548
0.80667	0.406
0.80833	0.281
0.81000	0.168
0.81167	0.067
0.81333	-0.018
0.81500	-0.089
0.81667	-0.146
0.81833	-0.188
0.82000	-0.216
0.82167	-0.226
0.82333	-0.192
0.82500	-0.021
0.82667	0.473
0.82833	1.483
0.83000	3.023
0.83167	4.779
0.83333	6.177
0.83500	6.688
0.83667	6.145
0.83833	4.842
0.84000	3.316
0.84167	2.018
0.84333	1.123
0.84500	0.576
0.84667	0.241
0.84833	0.014
0.85000	-0.159
0.85167	-0.293
0.85333	-0.395
0.85500	-0.468
0.85667	-0.524
0.85833	-0.572
0.86000	-0.616
0.86167	-0.656
0.86333	-0.684
0.86500	-0.702
0.86667	-0.711
0.86833	-0.714
0.87000	-0.716
0.87167	-0.714
0.87333	-0.707
0.87500	-0.684
0.87667	-0.641
0.87833	-0.575
0.88000	-0.490
0.88167	-0.398
0.88333	-0.314
0.88500	-0.246
0.88667	-0.197
0.88833	-0.160
0.89000	-0.126
0.89167	-0.097
0.89333	-0.085
0.89500	-0.107
0.89667	-0.173
0.89833	-0.277
0.90000	-0.400
0.90167	-0.522
0.90333	-0.628
0.90500	-0.714
0.90667	-0.784
0.90833	-0.840
0.91000	-0.882
0.91167	-0.904
0.91333	-0.902
0.91500	-0.867
0.91667	-0.798
0.91833	-0.709
0.92000	-0.623
0.92167	-0.561
0.92333	-0.524
0.92500	-0.494
0.92667	-0.455
0.92833	-0.405
0.93000	-0.343
0.93167	-0.273
0.93333	-0.201
0.93500	-0.139
0.93667	-0.093
0.93833	-0.070
0.94000	-0.073
0.94167	-0.107
0.94333	-0.175
0.94500	-0.279
0.94667	-0.413
0.94833	-0.562
0.95000	-0.705
0.95167	-0.826
0.95333	-0.919
0.95500	-0.985
0.95667	-1.030
0.95833	-1.063
0.96000	-1.087
0.96167	-1.105
0.96333	-1.116
0.96500	-1.114
0.96667	-1.086
0.96833	-1.003
0.97000	-0.781
0.97167	-0.075
0.97333	2.310
0.97500	9.009
0.97667	23.272
0.97833	45.935
0.98000	72.410
0.98167	93.333
0.98333	100.000
0.98500	90.357
0.98667	70.179
0.98833	48.556
0.99000	31.883
0.99167	21.548
0.99333	15.654
0.99500	11.920
0.99667	9.075
0.99833	6.725
1.00000	4.853
1.00167	3.487
1.00333	2.584
1.00500	2.028
1.00667	1.686
1.00833	1.454
1.01000	1.272
1.01167	1.107
1.01333	0.950
1.01500	0.801
1.01667	0.666
1.01833	0.548
1.02000	0.451
1.02167	0.377
1.02333	0.330
1.02500	0.311
1.02667	0.318
1.02833	0.344
1.03000	0.370
1.03167	0.375
1.03333	0.346
1.03500	0.284
1.03667	0.206
1.03833	0.126
1.04000	0.051
1.04167	-0.021
1.04333	-0.093
1.04500	-0.166
1.04667	-0.241
1.04833	-0.318
1.05000	-0.395
1.05167	-0.465
1.05333	-0.518
1.05500	-0.545
1.05667	-0.546
1.05833	-0.533
1.06000	-0.522
1.06167	-0.526
1.06333	-0.550
1.06500	-0.587
1.06667	-0.627
1.06833	-0.659
1.07000	-0.674
1.07167	-0.670
1.07333	-0.649
1.07500	-0.618
1.07667	-0.585
1.07833	-0.557
1.08000	-0.543
1.08167	-0.552
1.08333	-0.588
1.08500	-0.649
1.08667	-0.726
1.08833	-0.810
1.09000	-0.890
1.09167	-0.959
1.09333	-1.016
1.09500	-1.059
1.09667	-1.091
1.09833	-1.106
1.10000	-1.097
1.10167	-1.056
1.10333	-0.983
1.10500	-0.892
1.10667	-0.806
1.10833	-0.747
1.11000	-0.734
1.11167	-0.771
1.11333	-0.849
1.11500	-0.947
1.11667	-1.038
1.11833	-1.105
1.12000	-1.148
1.12167	-1.174
1.12333	-1.193
1.12500	-1.208
1.12667	-1.220
1.12833	-1.226
1.13000	-1.222
1.13167	-1.202
1.13333	-1.160
1.13500	-1.091
1.13667	-0.993
1.13833	-0.864
1.14000	-0.711
1.14167	-0.546
1.14333	-0.392
1.14500	-0.275
1.14667	-0.220
1.14833	-0.240
1.15000	-0.334
1.15167	-0.488
1.15333	-0.670
1.15500	-0.846
1.15667	-0.987
1.15833	-1.082
1.16000	-1.144
1.16167	-1.193
1.16333	-1.246
1.16500	-1.306
1.16667	-1.366
1.16833	-1.417
1.17000	-1.451
1.17167	-1.471
1.17333	-1.481
1.17500	-1.488
1.17667	-1.498
1.17833	-1.511
1.18000	-1.527
1.18167	-1.542
1.18333	-1.555
1.18500	-1.563
1.18667	-1.569
1.18833	-1.570
1.19000	-1.565
1.19167	-1.548
1.19333	-1.518
1.19500	-1.476
1.19667	-1.432
1.19833	-1.394
1.20000	-1.371
1.20167	-1.364
1.20333	-1.373
1.20500	-1.394
1.20667	-1.423
1.20833	-1.457
1.21000	-1.493
1.21167	-1.528
1.21333	-1.558
1.21500	-1.580
1.21667	-1.591
1.21833	-1.595
1.22000	-1.593
1.22167	-1.591
1.22333	-1.589
1.22500	-1.588
1.22667	-1.588
1.22833	-1.590
1.23000	-1.592
1.23167	-1.595
1.23333	-1.598
1.23500	-1.601
1.23667	-1.604
1.23833	-1.608
1.24000	-1.613
1.24167	-1.622
1.24333	-1.636
1.24500	-1.652
1.24667	-1.667
1.24833	-1.678
1.25000	-1.684
1.25167	-1.687
1.25333	-1.691
1.25500	-1.697
1.25667	-1.705
1.25833	-1.711
1.26000	-1.713
1.26167	-1.712
1.26333	-1.710
1.26500	-1.712
1.26667	-1.718
1.26833	-1.726
1.27000	-1.732
1.27167	-1.729
1.27333	-1.717
1.27500	-1.697
1.27667	-1.678
1.27833	-1.664
1.28000	-1.654
1.28167	-1.647
1.28333	-1.639
1.28500	-1.629
1.28667	-1.618
1.28833	-1.604
1.29000	-1.591
1.29167	-1.579
1.29333	-1.573
1.29500	-1.572
1.29667	-1.577
1.29833	-1.586
1.30000	-1.597
1.30167	-1.609
1.30333	-1.623
1.30500	-1.637
1.30667	-1.653
1.30833	-1.671
1.31000	-1.689
1.31167	-1.707
1.31333	-1.724
1.31500	-1.739
1.31667	-1.755
1.31833	-1.770
1.32000	-1.786
1.32167	-1.802
1.32333	-1.818
1.32500	-1.835
1.32667	-1.850
1.32833	-1.863
1.33000	-1.870
1.33167	-1.868
1.33333	-1.854
1.33500	-1.829
1.33667	-1.801
1.33833	-1.783
1.34000	-1.782
1.34167	-1.803
1.34333	-1.840
1.34500	-1.882
1.34667	-1.917
1.34833	-1.938
1.35000	-1.949
1.35167	-1.956
1.35333	-1.964
1.35500	-1.974
1.35667	-1.987
1.35833	-2.000
1.36000	-2.010
1.36167	-2.017
1.36333	-2.021
1.36500	-2.022
1.36667	-2.023
1.36833	-2.024
1.37000	-2.024
1.37167	-2.021
1.37333	-2.015
1.37500	-2.006
1.37667	-1.998
1.37833	-1.994
1.38000	-1.994
1.38167	-1.998
1.38333	-2.003
1.38500	-2.007
1.38667	-2.011
1.38833	-2.013
1.39000	-2.014
1.39167	-2.015
1.39333	-2.017
1.39500	-2.022
1.39667	-2.031
1.39833	-2.042
1.40000	-2.050
1.40167	-2.048
1.40333	-2.034
1.40500	-2.012
1.40667	-1.993
1.40833	-1.982
1.41000	-1.977
1.41167	-1.978
1.41333	-1.979
1.41500	-1.981
1.41667	-1.982
1.41833	-1.981
1.42000	-1.980
1.42167	-1.978
1.42333	-1.978
1.42500	-1.981
1.42667	-1.987
1.42833	-1.994
1.43000	-2.002
1.43167	-2.009
1.43333	-2.015
1.43500	-2.018
1.43667	-2.020
1.43833	-2.019
1.44000	-2.017
1.44167	-2.017
1.44333	-2.019
1.44500	-2.025
1.44667	-2.032
1.44833	-2.041
1.45000	-2.050
1.45167	-2.060
1.45333	-2.072
1.45500	-2.086
1.45667	-2.101
1.45833	-2.117
1.46000	-2.133
1.46167	-2.146
1.46333	-2.157
1.46500	-2.167
1.46667	-2.176
1.46833	-2.184
1.47000	-2.194
1.47167	-2.205
1.47333	-2.217
1.47500	-2.228
1.47667	-2.239
1.47833	-2.248
1.48000	-2.257
1.48167	-2.264
1.48333	-2.271
1.48500	-2.276
1.48667	-2.281
1.48833	-2.284
1.49000	-2.285
1.49167	-2.285
1.49333	-2.284
1.49500	-2.282
1.49667	-2.279
1.49833	-2.275
1.50000	-2.270
1.50167	-2.264
1.50333	-2.258
1.50500	-2.251
1.50667	-2.243
1.50833	-2.236
1.51000	-2.228
1.51167	-2.220
1.51333	-2.211
1.51500	-2.202
1.51667	-2.194
1.51833	-2.187
1.52000	-2.181
1.52167	-2.175
1.52333	-2.170
1.52500	-2.165
1.52667	-2.161
1.52833	-2.158
1.53000	-2.155
1.53167	-2.148
1.53333	-2.131
1.53500	-2.104
1.53667	-2.072
1.53833	-2.044
1.54000	-2.027
1.54167	-2.018
1.54333	-2.015
1.54500	-2.015
1.54667	-2.016
1.54833	-2.017
1.55000	-2.015
1.55167	-2.012
1.55333	-2.008
1.55500	-2.005
1.55667	-2.006
1.55833	-2.008
1.56000	-2.011
1.56167	-2.015
1.56333	-2.016
1.56500	-2.015
1.56667	-2.013
1.56833	-2.010
1.57000	-2.007
1.57167	-2.005
1.57333	-2.003
1.57500	-2.003
1.57667	-2.005
1.57833	-2.008
1.58000	-2.013
1.58167	-2.019
1.58333	-2.025
1.58500	-2.031
1.58667	-2.039
1.58833	-2.048
1.59000	-2.060
1.59167	-2.074
1.59333	-2.090
1.59500	-2.107
1.59667	-2.124
1.59833	-2.141
1.60000	-2.157
1.60167	-2.172
1.60333	-2.186
1.60500	-2.200
1.60667	-2.214
1.60833	-2.228
1.61000	-2.243
1.61167	-2.259
1.61333	-2.276
1.61500	-2.293
1.61667	-2.310
1.61833	-2.325
1.62000	-2.340
1.62167	-2.353
1.62333	-2.364
1.62500	-2.373
1.62667	-2.381
1.62833	-2.388
1.63000	-2.393
1.63167	-2.398
1.63333	-2.400
1.63500	-2.401
1.63667	-2.401
1.63833	-2.402
1.64000	-2.404
1.64167	-2.408
1.64333	-2.414
1.64500	-2.421
1.64667	-2.428
1.64833	-2.434
1.65000	-2.438
1.65167	-2.440
1.65333	-2.442
1.65500	-2.443
1.65667	-2.443
1.65833	-2.442
1.66000	-2.439
1.66167	-2.434
1.66333	-2.429
1.66500	-2.427
1.66667	-2.426
1.66833	-2.424
1.67000	-2.422
1.67167	-2.418
1.67333	-2.414
1.67500	-2.409
1.67667	-2.405
1.67833	-2.401
1.68000	-2.396
1.68167	-2.390
1.68333	-2.383
1.68500	-2.376
1.68667	-2.369
1.68833	-2.363
1.69000	-2.359
1.69167	-2.358
1.69333	-2.360
1.69500	-2.364
1.69667	-2.366
1.69833	-2.365
1.70000	-2.359
1.70167	-2.351
1.70333	-2.343
1.70500	-2.337
1.70667	-2.338
1.70833	-2.344
1.71000	-2.354
1.71167	-2.365
1.71333	-2.375
1.71500	-2.381
1.71667	-2.385
1.71833	-2.387
1.72000	-2.391
1.72167	-2.396
1.72333	-2.404
1.72500	-2.413
1.72667	-2.423
1.72833	-2.433
1.73000	-2.442
1.73167	-2.451
1.73333	-2.459
1.73500	-2.466
1.73667	-2.472
1.73833	-2.476
1.74000	-2.480
1.74167	-2.482
1.74333	-2.484
1.74500	-2.485
1.74667	-2.485
1.74833	-2.485
1.75000	-2.486
1.75167	-2.487
1.75333	-2.488
1.75500	-2.490
1.75667	-2.493
1.75833	-2.497
1.76000	-2.502
1.76167	-2.507
1.76333	-2.512
1.76500	-2.518
1.76667	-2.523
1.76833	-2.525
1.77000	-2.519
1.77167	-2.502
1.77333	-2.481
1.77500	-2.462
1.77667	-2.453
1.77833	-2.453
1.78000	-2.461
1.78167	-2.470
1.78333	-2.477
1.78500	-2.479
1.78667	-2.478
1.78833	-2.476
1.79000	-2.474
1.79167	-2.474
1.79333	-2.474
1.79500	-2.473
1.79667	-2.472
1.79833	-2.471
1.80000	-2.469
1.80167	-2.468
1.80333	-2.466
1.80500	-2.466
1.80667	-2.466
1.80833	-2.467
1.81000	-2.470
1.81167	-2.474
1.81333	-2.478
1.81500	-2.482
1.81667	-2.485
1.81833	-2.489
1.82000	-2.493
1.82167	-2.498
1.82333	-2.502
1.82500	-2.506
1.82667	-2.508
1.82833	-2.510
1.83000	-2.512
1.83167	-2.513
1.83333	-2.513
1.83500	-2.513
1.83667	-2.513
1.83833	-2.512
1.84000	-2.510
1.84167	-2.508
1.84333	-2.507
1.84500	-2.506
1.84667	-2.505
1.84833	-2.503
1.85000	-2.502
1.85167	-2.500
1.85333	-2.499
1.85500	-2.498
1.85667	-2.496
1.85833	-2.495
1.86000	-2.494
1.86167	-2.492
1.86333	-2.490
1.86500	-2.488
1.86667	-2.487
1.86833	-2.487
1.87000	-2.487
1.87167	-2.487
1.87333	-2.487
1.87500	-2.487
1.87666	-2.488
1.87833	-2.488
1.88000	-2.488
1.88166	-2.489
1.88333	-2.489
1.88500	-2.490
1.88666	-2.491
1.88833	-2.491
1.89000	-2.492
1.89166	-2.492
1.89333	-2.493
1.89500	-2.493
1.89666	-2.492
1.89833	-2.493
1.90000	-2.496
1.90166	-2.500
1.90333	-2.502
1.90500	-2.503
1.90666	-2.504
1.90833	-2.505
1.91000	-2.505
1.91166	-2.506
1.91333	-2.508
1.91500	-2.511
1.91666	-2.514
1.91833	-2.516
1.92000	-2.517
1.92166	-2.518
1.92333	-2.519
1.92500	-2.522
1.92666	-2.527
1.92833	-2.533
1.93000	-2.541
1.93166	-2.548
1.93333	-2.554
1.93500	-2.558
1.93666	-2.563
1.93833	-2.568
1.94000	-2.574
1.94166	-2.580
1.94333	-2.587
1.94500	-2.591
1.94666	-2.592
1.94833	-2.590
1.95000	-2.587
1.95166	-2.583
1.95333	-2.581
1.95500	-2.579
1.95666	-2.579
1.95833	-2.581
1.96000	-2.584
1.96166	-2.588
1.96333	-2.593
1.96500	-2.599
1.96666	-2.606
1.96833	-2.614
1.97000	-2.622
1.97166	-2.630
1.97333	-2.639
1.97500	-2.647
1.97666	-2.655
1.97833	-2.662
1.98000	-2.670
1.98166	-2.677
1.98333	-2.684
1.98500	-2.690
1.98666	-2.695
1.98833	-2.700
1.99000	-2.705
1.99166	-2.710
1.99333	-2.714
1.99500	-2.718
1.99666	-2.722
1.99833	-2.727
2.00000	-2.731
}
[PEAK]
{
Peak ID	5
Peak Ref	8
Time	0.6767
Peak	0.6633	0.6983
Intensity	-277356.09	-209463.22
Height	18758516.00
AreaAbs	204234.5156
Area %BP	20.56
Area %Total	13.11
Width	0.03
}
[PEAK]
{
Peak ID	6
Peak Ref	9
Time	0.7167
Peak	0.6983	0.7233
Intensity	-209463.22	-160968.28
Height	7586315.50
AreaAbs	95614.3047
Area %BP	9.63
Area %Total	6.14
Width	0.02
}
[PEAK]
{
Peak ID	7
Peak Ref	10
Time	0.7300
Peak	0.7233	0.7583
Intensity	-160968.28	-93075.39
Height	4839781.00
AreaAbs	67496.1094
Area %BP	6.80
Area %Total	4.33
Width	0.03
}
[PEAK]
{
Peak ID	8
Peak Ref	11
Time	0.7867
Peak	0.7617	0.8217
Intensity	-201917.31	-200600.08
Height	10341650.00
AreaAbs	128995.8594
Area %BP	12.99
Area %Total	8.28
Width	0.06
}
[PEAK]
{
Peak ID	9
Peak Ref	12
Time	0.8350
Peak	0.8217	0.8550
Intensity	-200600.08	-416309.13
Height	6230073.00
AreaAbs	68769.8984
Area %BP	6.92
Area %Total	4.41
Width	0.03
}
[PEAK]
{
Peak ID	12
Peak Ref	13
Time	0.9833
Peak	0.9667	1.0133
Intensity	-964699.19	844194.50
Height	89183848.00
AreaAbs	993231.0625
Area %BP	100.00
Area %Total	63.74
Width	0.05
}
}
[CHROMATOGRAM]
{
TraceNumber	3
Description	DAD: 254
ProcDesc
MaxIntensity	723008.00
[TRACE]
{
0.00000	0.000
0.00167	0.000
0.00333	-0.001
0.00500	-0.002
0.00667	-0.003
0.00833	-0.003
0.01000	-0.003
0.01167	-0.003
0.01333	-0.002
0.01500	-0.004
0.01667	-0.005
0.01833	-0.006
0.02000	-0.007
0.02167	-0.008
0.02333	-0.008
0.02500	-0.009
0.02667	-0.010
0.02833	-0.012
0.03000	-0.012
0.03167	-0.011
0.03333	-0.007
0.03500	-0.003
0.03667	-0.001
0.03833	-0.002
0.04000	-0.006
0.04167	-0.010
0.04333	-0.012
0.04500	-0.011
0.04667	-0.008
0.04833	-0.005
0.05000	-0.002
0.05167	0.001
0.05333	0.005
0.05500	0.010
0.05667	0.012
0.05833	0.013
0.06000	0.010
0.06167	0.008
0.06333	0.004
0.06500	0.002
0.06667	0.000
0.06833	0.000
0.07000	0.002
0.07167	0.003
0.07333	0.004
0.07500	0.004
0.07667	0.003
0.07833	0.002
0.08000	0.001
0.08167	0.000
0.08333	-0.001
0.08500	-0.003
0.08667	-0.002
0.08833	-0.001
0.09000	0.001
0.09167	0.002
0.09333	0.003
0.09500	0.002
0.09667	-0.001
0.09833	-0.003
0.10000	-0.005
0.10167	-0.005
0.10333	-0.003
0.10500	-0.002
0.10667	-0.002
0.10833	-0.005
0.11000	-0.009
0.11167	-0.015
0.11333	-0.020
0.11500	-0.023
0.11667	-0.024
0.11833	-0.023
0.12000	-0.022
0.12167	-0.018
0.12333	-0.015
0.12500	-0.011
0.12667	-0.010
0.12833	-0.010
0.13000	-0.012
0.13167	-0.014
0.13333	-0.016
0.13500	-0.016
0.13667	-0.016
0.13833	-0.015
0.14000	-0.013
0.14167	-0.010
0.14333	-0.007
0.14500	-0.005
0.14667	-0.005
0.14833	-0.005
0.15000	-0.007
0.15167	-0.009
0.15333	-0.010
0.15500	-0.011
0.15667	-0.011
0.15833	-0.010
0.16000	-0.007
0.16167	-0.005
0.16333	-0.003
0.16500	-0.003
0.16667	-0.004
0.16833	-0.006
0.17000	-0.009
0.17167	-0.011
0.17333	-0.012
0.17500	-0.012
0.17667	-0.011
0.17833	-0.009
0.18000	-0.010
0.18167	-0.012
0.18333	-0.016
0.18500	-0.021
0.18667	-0.026
0.18833	-0.029
0.19000	-0.030
0.19167	-0.028
0.19333	-0.024
0.19500	-0.020
0.19667	-0.016
0.19833	-0.014
0.20000	-0.013
0.20167	-0.014
0.20333	-0.017
0.20500	-0.019
0.20667	-0.021
0.20833	-0.021
0.21000	-0.019
0.21167	-0.017
0.21333	-0.014
0.21500	-0.012
0.21667	-0.009
0.21833	-0.008
0.22000	-0.006
0.22167	-0.004
0.22333	-0.003
0.22500	-0.004
0.22667	-0.004
0.22833	-0.003
0.23000	-0.001
0.23167	0.000
0.23333	0.000
0.23500	-0.003
0.23667	-0.010
0.23833	-0.018
0.24000	-0.026
0.24167	-0.032
0.24333	-0.035
0.24500	-0.033
0.24667	-0.029
0.24833	-0.023
0.25000	-0.017
0.25167	-0.014
0.25333	-0.027
0.25500	-0.065
0.25667	-0.115
0.25833	-0.141
0.26000	-0.113
0.26167	-0.052
0.26333	0.011
0.26500	0.054
0.26667	0.083
0.26833	0.102
0.27000	0.113
0.27167	0.115
0.27333	0.108
0.27500	0.092
0.27667	0.073
0.27833	0.055
0.28000	0.040
0.28167	0.028
0.28333	0.020
0.28500	0.016
0.28667	0.013
0.28833	0.013
0.29000	0.014
0.29167	0.018
0.29333	0.023
0.29500	0.025
0.29667	0.028
0.29833	0.029
0.30000	0.029
0.30167	0.028
0.30333	0.024
0.30500	0.020
0.30667	0.015
0.30833	0.009
0.31000	0.001
0.31167	-0.007
0.31333	-0.015
0.31500	-0.022
0.31667	-0.024
0.31833	-0.023
0.32000	-0.020
0.32167	-0.018
0.32333	-0.017
0.32500	-0.019
0.32667	-0.021
0.32833	-0.022
0.33000	-0.022
0.33167	-0.020
0.33333	-0.015
0.33500	-0.010
0.33667	-0.007
0.33833	-0.007
0.34000	-0.009
0.34167	-0.009
0.34333	-0.006
0.34500	0.000
0.34667	0.008
0.34833	0.018
0.35000	0.023
0.35167	0.015
0.35333	-0.006
0.35500	-0.028
0.35667	-0.043
0.35833	-0.049
0.36000	-0.054
0.36167	-0.058
0.36333	-0.044
0.36500	0.013
0.36667	0.125
0.36833	0.268
0.37000	0.388
0.37167	0.449
0.37333	0.452
0.37500	0.419
0.37667	0.362
0.37833	0.291
0.38000	0.214
0.38167	0.143
0.38333	0.085
0.38500	0.045
0.38667	0.024
0.38833	0.024
0.39000	0.042
0.39167	0.073
0.39333	0.108
0.39500	0.138
0.39667	0.163
0.39833	0.183
0.40000	0.204
0.40167	0.229
0.40333	0.257
0.40500	0.282
0.40667	0.301
0.40833	0.311
0.41000	0.315
0.41167	0.314
0.41333	0.310
0.41500	0.301
0.41667	0.289
0.41833	0.271
0.42000	0.250
0.42167	0.228
0.42333	0.207
0.42500	0.186
0.42667	0.163
0.42833	0.139
0.43000	0.114
0.43167	0.091
0.43333	0.072
0.43500	0.054
0.43667	0.037
0.43833	0.020
0.44000	0.005
0.44167	-0.010
0.44333	-0.022
0.44500	-0.031
0.44667	-0.036
0.44833	-0.040
0.45000	-0.042
0.45167	-0.044
0.45333	-0.045
0.45500	-0.047
0.45667	-0.047
0.45833	-0.048
0.46000	-0.048
0.46167	-0.048
0.46333	-0.048
0.46500	-0.048
0.46667	-0.050
0.46833	-0.053
0.47000	-0.059
0.47167	-0.064
0.47333	-0.069
0.47500	-0.073
0.47667	-0.077
0.47833	-0.079
0.48000	-0.081
0.48167	-0.081
0.48333	-0.081
0.48500	-0.080
0.48667	-0.082
0.48833	-0.084
0.49000	-0.086
0.49167	-0.086
0.49333	-0.083
0.49500	-0.080
0.49667	-0.078
0.49833	-0.079
0.50000	-0.083
0.50167	-0.089
0.50333	-0.094
0.50500	-0.097
0.50667	-0.098
0.50833	-0.098
0.51000	-0.096
0.51167	-0.093
0.51333	-0.089
0.51500	-0.085
0.51667	-0.085
0.51833	-0.088
0.52000	-0.094
0.52167	-0.102
0.52333	-0.109
0.52500	-0.115
0.52667	-0.121
0.52833	-0.126
0.53000	-0.130
0.53167	-0.130
0.53333	-0.123
0.53500	-0.108
0.53667	-0.085
0.53833	-0.059
0.54000	-0.031
0.54167	-0.004
0.54333	0.023
0.54500	0.048
0.54667	0.068
0.54833	0.077
0.55000	0.070
0.55167	0.047
0.55333	0.016
0.55500	-0.016
0.55667	-0.043
0.55833	-0.061
0.56000	-0.069
0.56167	-0.064
0.56333	-0.048
0.56500	-0.022
0.56667	0.007
0.56833	0.035
0.57000	0.057
0.57167	0.063
0.57333	0.048
0.57500	0.013
0.57667	-0.026
0.57833	-0.050
0.58000	-0.042
0.58167	0.003
0.58333	0.076
0.58500	0.160
0.58667	0.236
0.58833	0.295
0.59000	0.330
0.59167	0.334
0.59333	0.303
0.59500	0.243
0.59667	0.173
0.59833	0.122
0.60000	0.113
0.60167	0.152
0.60333	0.224
0.60500	0.301
0.60667	0.381
0.60833	0.525
0.61000	0.804
0.61167	1.188
0.61333	1.494
0.61500	1.526
0.61667	1.253
0.61833	0.839
0.62000	0.478
0.62167	0.256
0.62333	0.152
0.62500	0.112
0.62667	0.100
0.62833	0.121
0.63000	0.232
0.63167	0.498
0.63333	0.942
0.63500	1.487
0.63667	2.026
0.63833	2.475
0.64000	2.803
0.64167	2.975
0.64333	2.948
0.64500	2.693
0.64667	2.250
0.64833	1.713
0.65000	1.200
0.65167	0.788
0.65333	0.502
0.65500	0.327
0.65667	0.229
0.65833	0.177
0.66000	0.148
0.66167	0.127
0.66333	0.109
0.66500	0.096
0.66667	0.114
0.66833	0.310
0.67000	1.020
0.67167	2.561
0.67333	4.765
0.67500	6.768
0.67667	7.566
0.67833	6.825
0.68000	5.140
0.68167	3.421
0.68333	2.224
0.68500	1.589
0.68667	1.312
0.68833	1.217
0.69000	1.226
0.69167	1.305
0.69333	1.413
0.69500	1.488
0.69667	1.493
0.69833	1.447
0.70000	1.411
0.70167	1.430
0.70333	1.499
0.70500	1.582
0.70667	1.669
0.70833	1.913
0.71000	2.782
0.71167	4.754
0.71333	7.635
0.71500	10.128
0.71667	10.767
0.71833	9.187
0.72000	6.472
0.72167	4.029
0.72333	2.590
0.72500	2.117
0.72667	2.274
0.72833	2.672
0.73000	2.920
0.73167	2.785
0.73333	2.328
0.73500	1.849
0.73667	1.606
0.73833	1.646
0.74000	1.823
0.74167	1.974
0.74333	2.022
0.74500	1.978
0.74667	1.873
0.74833	1.723
0.75000	1.536
0.75167	1.326
0.75333	1.117
0.75500	0.928
0.75667	0.776
0.75833	0.663
0.76000	0.589
0.76167	0.549
0.76333	0.536
0.76500	0.536
0.76667	0.537
0.76833	0.532
0.77000	0.519
0.77167	0.502
0.77333	0.489
0.77500	0.497
0.77667	0.586
0.77833	0.914
0.78000	1.683
0.78167	2.952
0.78333	4.437
0.78500	5.592
0.78667	5.959
0.78833	5.491
0.79000	4.548
0.79167	3.590
0.79333	2.876
0.79500	2.405
0.79667	2.061
0.79833	1.771
0.80000	1.531
0.80167	1.350
0.80333	1.220
0.80500	1.119
0.80667	1.028
0.80833	0.937
0.81000	0.844
0.81167	0.758
0.81333	0.685
0.81500	0.630
0.81667	0.594
0.81833	0.573
0.82000	0.567
0.82167	0.577
0.82333	0.637
0.82500	0.856
0.82667	1.450
0.82833	2.642
0.83000	4.447
0.83167	6.504
0.83333	8.155
0.83500	8.783
0.83667	8.195
0.83833	6.721
0.84000	4.980
0.84167	3.493
0.84333	2.466
0.84500	1.838
0.84667	1.455
0.84833	1.196
0.85000	0.997
0.85167	0.839
0.85333	0.714
0.85500	0.618
0.85667	0.544
0.85833	0.483
0.86000	0.432
0.86167	0.390
0.86333	0.359
0.86500	0.341
0.86667	0.331
0.86833	0.326
0.87000	0.323
0.87167	0.321
0.87333	0.323
0.87500	0.336
0.87667	0.361
0.87833	0.400
0.88000	0.448
0.88167	0.501
0.88333	0.551
0.88500	0.597
0.88667	0.641
0.88833	0.693
0.89000	0.758
0.89167	0.827
0.89333	0.881
0.89500	0.899
0.89667	0.869
0.89833	0.793
0.90000	0.694
0.90167	0.594
0.90333	0.509
0.90500	0.440
0.90667	0.385
0.90833	0.342
0.91000	0.313
0.91167	0.300
0.91333	0.310
0.91500	0.350
0.91667	0.424
0.91833	0.520
0.92000	0.612
0.92167	0.673
0.92333	0.695
0.92500	0.698
0.92667	0.710
0.92833	0.744
0.93000	0.793
0.93167	0.840
0.93333	0.874
0.93500	0.889
0.93667	0.890
0.93833	0.874
0.94000	0.842
0.94167	0.792
0.94333	0.727
0.94500	0.649
0.94667	0.564
0.94833	0.480
0.95000	0.405
0.95167	0.343
0.95333	0.295
0.95500	0.259
0.95667	0.233
0.95833	0.212
0.96000	0.196
0.96167	0.184
0.96333	0.179
0.96500	0.185
0.96667	0.216
0.96833	0.300
0.97000	0.521
0.97167	1.217
0.97333	3.563
0.97500	10.156
0.97667	24.206
0.97833	46.563
0.98000	72.727
0.98167	93.432
0.98333	100.000
0.98500	90.334
0.98667	70.140
0.98833	48.427
0.99000	31.579
0.99167	21.050
0.99333	15.059
0.99500	11.406
0.99667	8.814
0.99833	6.813
1.00000	5.288
1.00167	4.198
1.00333	3.475
1.00500	3.018
1.00667	2.728
1.00833	2.528
1.01000	2.369
1.01167	2.225
1.01333	2.088
1.01500	1.959
1.01667	1.844
1.01833	1.743
1.02000	1.660
1.02167	1.599
1.02333	1.562
1.02500	1.552
1.02667	1.566
1.02833	1.598
1.03000	1.631
1.03167	1.645
1.03333	1.626
1.03500	1.574
1.03667	1.504
1.03833	1.430
1.04000	1.357
1.04167	1.286
1.04333	1.215
1.04500	1.144
1.04667	1.071
1.04833	0.994
1.05000	0.915
1.05167	0.841
1.05333	0.784
1.05500	0.751
1.05667	0.744
1.05833	0.751
1.06000	0.757
1.06167	0.749
1.06333	0.724
1.06500	0.685
1.06667	0.642
1.06833	0.606
1.07000	0.584
1.07167	0.579
1.07333	0.587
1.07500	0.605
1.07667	0.626
1.07833	0.644
1.08000	0.652
1.08167	0.646
1.08333	0.621
1.08500	0.582
1.08667	0.533
1.08833	0.482
1.09000	0.434
1.09167	0.393
1.09333	0.360
1.09500	0.331
1.09667	0.308
1.09833	0.297
1.10000	0.307
1.10167	0.346
1.10333	0.413
1.10500	0.498
1.10667	0.581
1.10833	0.642
1.11000	0.665
1.11167	0.641
1.11333	0.574
1.11500	0.482
1.11667	0.391
1.11833	0.318
1.12000	0.267
1.12167	0.232
1.12333	0.206
1.12500	0.187
1.12667	0.172
1.12833	0.163
1.13000	0.161
1.13167	0.172
1.13333	0.197
1.13500	0.242
1.13667	0.309
1.13833	0.398
1.14000	0.502
1.14167	0.612
1.14333	0.715
1.14500	0.794
1.14667	0.831
1.14833	0.818
1.15000	0.759
1.15167	0.665
1.15333	0.557
1.15500	0.454
1.15667	0.375
1.15833	0.323
1.16000	0.292
1.16167	0.265
1.16333	0.232
1.16500	0.191
1.16667	0.148
1.16833	0.110
1.17000	0.084
1.17167	0.068
1.17333	0.059
1.17500	0.053
1.17667	0.046
1.17833	0.038
1.18000	0.030
1.18167	0.023
1.18333	0.016
1.18500	0.007
1.18667	-0.001
1.18833	-0.008
1.19000	-0.009
1.19167	0.001
1.19333	0.024
1.19500	0.057
1.19667	0.094
1.19833	0.126
1.20000	0.147
1.20167	0.154
1.20333	0.149
1.20500	0.136
1.20667	0.117
1.20833	0.095
1.21000	0.071
1.21167	0.050
1.21333	0.032
1.21500	0.022
1.21667	0.020
1.21833	0.025
1.22000	0.032
1.22167	0.041
1.22333	0.049
1.22500	0.056
1.22667	0.062
1.22833	0.066
1.23000	0.070
1.23167	0.075
1.23333	0.081
1.23500	0.089
1.23667	0.098
1.23833	0.108
1.24000	0.117
1.24167	0.123
1.24333	0.124
1.24500	0.119
1.24667	0.114
1.24833	0.111
1.25000	0.111
1.25167	0.110
1.25333	0.104
1.25500	0.094
1.25667	0.079
1.25833	0.064
1.26000	0.052
1.26167	0.042
1.26333	0.030
1.26500	0.015
1.26667	-0.006
1.26833	-0.029
1.27000	-0.050
1.27167	-0.065
1.27333	-0.070
1.27500	-0.066
1.27667	-0.060
1.27833	-0.056
1.28000	-0.054
1.28167	-0.052
1.28333	-0.049
1.28500	-0.043
1.28667	-0.036
1.28833	-0.026
1.29000	-0.014
1.29167	-0.003
1.29333	0.005
1.29500	0.006
1.29667	0.001
1.29833	-0.009
1.30000	-0.022
1.30167	-0.038
1.30333	-0.057
1.30500	-0.075
1.30667	-0.094
1.30833	-0.111
1.31000	-0.128
1.31167	-0.143
1.31333	-0.155
1.31500	-0.164
1.31667	-0.171
1.31833	-0.176
1.32000	-0.179
1.32167	-0.179
1.32333	-0.177
1.32500	-0.172
1.32667	-0.167
1.32833	-0.161
1.33000	-0.150
1.33167	-0.131
1.33333	-0.103
1.33500	-0.068
1.33667	-0.034
1.33833	-0.010
1.34000	-0.003
1.34167	-0.013
1.34333	-0.039
1.34500	-0.068
1.34667	-0.093
1.34833	-0.107
1.35000	-0.115
1.35167	-0.120
1.35333	-0.128
1.35500	-0.139
1.35667	-0.154
1.35833	-0.167
1.36000	-0.178
1.36167	-0.184
1.36333	-0.187
1.36500	-0.187
1.36667	-0.188
1.36833	-0.191
1.37000	-0.195
1.37167	-0.202
1.37333	-0.207
1.37500	-0.211
1.37667	-0.211
1.37833	-0.211
1.38000	-0.211
1.38167	-0.211
1.38333	-0.210
1.38500	-0.211
1.38667	-0.212
1.38833	-0.212
1.39000	-0.211
1.39167	-0.208
1.39333	-0.204
1.39500	-0.200
1.39667	-0.198
1.39833	-0.200
1.40000	-0.202
1.40167	-0.202
1.40333	-0.195
1.40500	-0.186
1.40667	-0.178
1.40833	-0.174
1.41000	-0.175
1.41167	-0.179
1.41333	-0.184
1.41500	-0.189
1.41667	-0.193
1.41833	-0.194
1.42000	-0.194
1.42167	-0.192
1.42333	-0.192
1.42500	-0.192
1.42667	-0.193
1.42833	-0.196
1.43000	-0.199
1.43167	-0.205
1.43333	-0.211
1.43500	-0.218
1.43667	-0.224
1.43833	-0.228
1.44000	-0.230
1.44167	-0.231
1.44333	-0.231
1.44500	-0.231
1.44667	-0.231
1.44833	-0.233
1.45000	-0.236
1.45167	-0.238
1.45333	-0.239
1.45500	-0.239
1.45667	-0.239
1.45833	-0.241
1.46000	-0.242
1.46167	-0.243
1.46333	-0.242
1.46500	-0.241
1.46667	-0.239
1.46833	-0.236
1.47000	-0.234
1.47167	-0.233
1.47333	-0.234
1.47500	-0.236
1.47667	-0.238
1.47833	-0.241
1.48000	-0.244
1.48167	-0.247
1.48333	-0.249
1.48500	-0.253
1.48667	-0.257
1.48833	-0.262
1.49000	-0.266
1.49167	-0.269
1.49333	-0.272
1.49500	-0.275
1.49667	-0.276
1.49833	-0.278
1.50000	-0.279
1.50167	-0.280
1.50333	-0.281
1.50500	-0.282
1.50667	-0.283
1.50833	-0.285
1.51000	-0.287
1.51167	-0.290
1.51333	-0.292
1.51500	-0.293
1.51667	-0.293
1.51833	-0.294
1.52000	-0.297
1.52167	-0.299
1.52333	-0.300
1.52500	-0.300
1.52667	-0.301
1.52833	-0.301
1.53000	-0.303
1.53167	-0.302
1.53333	-0.296
1.53500	-0.282
1.53667	-0.265
1.53833	-0.250
1.54000	-0.241
1.54167	-0.238
1.54333	-0.237
1.54500	-0.239
1.54667	-0.241
1.54833	-0.241
1.55000	-0.239
1.55167	-0.235
1.55333	-0.230
1.55500	-0.225
1.55667	-0.222
1.55833	-0.221
1.56000	-0.222
1.56167	-0.222
1.56333	-0.222
1.56500	-0.220
1.56667	-0.217
1.56833	-0.215
1.57000	-0.213
1.57167	-0.213
1.57333	-0.213
1.57500	-0.213
1.57667	-0.214
1.57833	-0.216
1.58000	-0.218
1.58167	-0.220
1.58333	-0.221
1.58500	-0.222
1.58667	-0.224
1.58833	-0.225
1.59000	-0.227
1.59167	-0.229
1.59333	-0.232
1.59500	-0.236
1.59667	-0.241
1.59833	-0.245
1.60000	-0.249
1.60167	-0.251
1.60333	-0.251
1.60500	-0.252
1.60667	-0.253
1.60833	-0.253
1.61000	-0.253
1.61167	-0.253
1.61333	-0.255
1.61500	-0.258
1.61667	-0.262
1.61833	-0.263
1.62000	-0.265
1.62167	-0.266
1.62333	-0.267
1.62500	-0.268
1.62667	-0.269
1.62833	-0.270
1.63000	-0.271
1.63167	-0.271
1.63333	-0.269
1.63500	-0.267
1.63667	-0.263
1.63833	-0.260
1.64000	-0.259
1.64167	-0.261
1.64333	-0.266
1.64500	-0.273
1.64667	-0.280
1.64833	-0.285
1.65000	-0.290
1.65167	-0.294
1.65333	-0.297
1.65500	-0.299
1.65667	-0.301
1.65833	-0.303
1.66000	-0.303
1.66167	-0.302
1.66333	-0.299
1.66500	-0.298
1.66667	-0.300
1.66833	-0.304
1.67000	-0.306
1.67167	-0.308
1.67333	-0.308
1.67500	-0.307
1.67667	-0.306
1.67833	-0.307
1.68000	-0.307
1.68167	-0.308
1.68333	-0.309
1.68500	-0.309
1.68667	-0.309
1.68833	-0.308
1.69000	-0.305
1.69167	-0.303
1.69333	-0.303
1.69500	-0.305
1.69667	-0.308
1.69833	-0.311
1.70000	-0.312
1.70167	-0.312
1.70333	-0.310
1.70500	-0.307
1.70667	-0.303
1.70833	-0.300
1.71000	-0.299
1.71167	-0.300
1.71333	-0.303
1.71500	-0.305
1.71667	-0.306
1.71833	-0.306
1.72000	-0.305
1.72167	-0.304
1.72333	-0.303
1.72500	-0.303
1.72667	-0.302
1.72833	-0.302
1.73000	-0.302
1.73167	-0.303
1.73333	-0.304
1.73500	-0.305
1.73667	-0.305
1.73833	-0.307
1.74000	-0.308
1.74167	-0.309
1.74333	-0.310
1.74500	-0.310
1.74667	-0.311
1.74833	-0.311
1.75000	-0.310
1.75167	-0.309
1.75333	-0.308
1.75500	-0.308
1.75667	-0.308
1.75833	-0.308
1.76000	-0.308
1.76167	-0.308
1.76333	-0.307
1.76500	-0.306
1.76667	-0.306
1.76833	-0.304
1.77000	-0.296
1.77167	-0.280
1.77333	-0.261
1.77500	-0.246
1.77667	-0.238
1.77833	-0.238
1.78000	-0.242
1.78167	-0.248
1.78333	-0.252
1.78500	-0.253
1.78667	-0.251
1.78833	-0.248
1.79000	-0.246
1.79167	-0.245
1.79333	-0.244
1.79500	-0.244
1.79667	-0.244
1.79833	-0.244
1.80000	-0.243
1.80167	-0.243
1.80333	-0.242
1.80500	-0.242
1.80667	-0.242
1.80833	-0.243
1.81000	-0.244
1.81167	-0.246
1.81333	-0.249
1.81500	-0.253
1.81667	-0.257
1.81833	-0.262
1.82000	-0.267
1.82167	-0.272
1.82333	-0.277
1.82500	-0.280
1.82667	-0.282
1.82833	-0.284
1.83000	-0.286
1.83167	-0.289
1.83333	-0.291
1.83500	-0.293
1.83667	-0.295
1.83833	-0.296
1.84000	-0.296
1.84167	-0.297
1.84333	-0.298
1.84500	-0.299
1.84667	-0.301
1.84833	-0.302
1.85000	-0.303
1.85167	-0.303
1.85333	-0.304
1.85500	-0.305
1.85667	-0.305
1.85833	-0.305
1.86000	-0.305
1.86167	-0.305
1.86333	-0.305
1.86500	-0.305
1.86667	-0.304
1.86833	-0.305
1.87000	-0.305
1.87167	-0.306
1.87333	-0.306
1.87500	-0.306
1.87666	-0.307
1.87833	-0.308
1.88000	-0.308
1.88166	-0.308
1.88333	-0.307
1.88500	-0.307
1.88666	-0.306
1.88833	-0.305
1.89000	-0.305
1.89166	-0.306
1.89333	-0.307
1.89500	-0.307
1.89666	-0.306
1.89833	-0.305
1.90000	-0.305
1.90166	-0.306
1.90333	-0.307
1.90500	-0.306
1.90666	-0.304
1.90833	-0.303
1.91000	-0.303
1.91166	-0.302
1.91333	-0.302
1.91500	-0.303
1.91666	-0.304
1.91833	-0.305
1.92000	-0.304
1.92166	-0.302
1.92333	-0.302
1.92500	-0.301
1.92666	-0.299
1.92833	-0.299
1.93000	-0.299
1.93166	-0.301
1.93333	-0.302
1.93500	-0.303
1.93666	-0.302
1.93833	-0.301
1.94000	-0.301
1.94166	-0.302
1.94333	-0.304
1.94500	-0.306
1.94666	-0.307
1.94833	-0.308
1.95000	-0.308
1.95166	-0.308
1.95333	-0.307
1.95500	-0.306
1.95666	-0.305
1.95833	-0.303
1.96000	-0.302
1.96166	-0.301
1.96333	-0.301
1.96500	-0.301
1.96666	-0.301
1.96833	-0.300
1.97000	-0.299
1.97166	-0.298
1.97333	-0.298
1.97500	-0.297
1.97666	-0.297
1.97833	-0.297
1.98000	-0.297
1.98166	-0.297
1.98333	-0.297
1.98500	-0.297
1.98666	-0.296
1.98833	-0.295
1.99000	-0.294
1.99166	-0.295
1.99333	-0.295
1.99500	-0.295
1.99666	-0.295
1.99833	-0.296
2.00000	-0.297
}
[PEAK]
{
Peak ID	5
Peak Ref	14
Time	0.6767
Peak	0.6667	0.6883
Intensity	826.00	8802.00
Height	50192.77
AreaAbs	427.8879
Area %BP	5.48
Area %Total	4.32
Width	0.02
}
[PEAK]
{
Peak ID	6
Peak Ref	15
Time	0.7167
Peak	0.7033	0.7250
Intensity	10841.00	15307.00
Height	64258.70
AreaAbs	503.8145
Area %BP	6.45
Area %Total	5.09
Width	0.02
}
[PEAK]
{
Peak ID	8
Peak Ref	16
Time	0.7867
Peak	0.7750	0.8117
Intensity	3594.00	5478.00
Height	38890.55
AreaAbs	478.6012
Area %BP	6.13
Area %Total	4.83
Width	0.04
}
[PEAK]
{
Peak ID	9
Peak Ref	17
Time	0.8350
Peak	0.8200	0.8583
Intensity	4099.00	3492.00
Height	59642.52
AreaAbs	681.5294
Area %BP	8.73
Area %Total	6.88
Width	0.04
}
[PEAK]
{
Peak ID	12
Peak Ref	18
Time	0.9833
Peak	0.9667	1.0117
Intensity	1562.00	16088.00
Height	716066.00
AreaAbs	7810.5791
Area %BP	100.00
Area %Total	78.88
Width	0.05
}
}
[CHROMATOGRAM]
{
TraceNumber	4
Description	DAD: 220
ProcDesc
MaxIntensity	1436352.00
[TRACE]
{
0.00000	0.000
0.00167	0.027
0.00333	0.059
0.00500	0.095
0.00667	0.135
0.00833	0.179
0.01000	0.222
0.01167	0.261
0.01333	0.294
0.01500	0.321
0.01667	0.345
0.01833	0.366
0.02000	0.384
0.02167	0.397
0.02333	0.400
0.02500	0.390
0.02667	0.365
0.02833	0.330
0.03000	0.292
0.03167	0.257
0.03333	0.226
0.03500	0.200
0.03667	0.175
0.03833	0.148
0.04000	0.118
0.04167	0.089
0.04333	0.065
0.04500	0.049
0.04667	0.041
0.04833	0.038
0.05000	0.036
0.05167	0.031
0.05333	0.025
0.05500	0.018
0.05667	0.010
0.05833	0.001
0.06000	-0.011
0.06167	-0.022
0.06333	-0.033
0.06500	-0.041
0.06667	-0.048
0.06833	-0.053
0.07000	-0.055
0.07167	-0.054
0.07333	-0.047
0.07500	-0.034
0.07667	-0.015
0.07833	0.008
0.08000	0.033
0.08167	0.061
0.08333	0.092
0.08500	0.124
0.08667	0.155
0.08833	0.182
0.09000	0.206
0.09167	0.228
0.09333	0.249
0.09500	0.270
0.09667	0.292
0.09833	0.314
0.10000	0.337
0.10167	0.361
0.10333	0.384
0.10500	0.399
0.10667	0.399
0.10833	0.377
0.11000	0.335
0.11167	0.278
0.11333	0.216
0.11500	0.155
0.11667	0.101
0.11833	0.061
0.12000	0.038
0.12167	0.030
0.12333	0.029
0.12500	0.029
0.12667	0.026
0.12833	0.019
0.13000	0.009
0.13167	-0.005
0.13333	-0.019
0.13500	-0.032
0.13667	-0.042
0.13833	-0.051
0.14000	-0.058
0.14167	-0.062
0.14333	-0.061
0.14500	-0.053
0.14667	-0.039
0.14833	-0.020
0.15000	0.002
0.15167	0.028
0.15333	0.057
0.15500	0.090
0.15667	0.123
0.15833	0.156
0.16000	0.184
0.16167	0.210
0.16333	0.233
0.16500	0.253
0.16667	0.272
0.16833	0.291
0.17000	0.311
0.17167	0.333
0.17333	0.355
0.17500	0.376
0.17667	0.392
0.17833	0.395
0.18000	0.379
0.18167	0.343
0.18333	0.292
0.18500	0.232
0.18667	0.172
0.18833	0.118
0.19000	0.076
0.19167	0.049
0.19333	0.035
0.19500	0.030
0.19667	0.026
0.19833	0.021
0.20000	0.014
0.20167	0.003
0.20333	-0.009
0.20500	-0.021
0.20667	-0.033
0.20833	-0.044
0.21000	-0.054
0.21167	-0.061
0.21333	-0.061
0.21500	-0.051
0.21667	-0.025
0.21833	0.021
0.22000	0.089
0.22167	0.179
0.22333	0.280
0.22500	0.378
0.22667	0.458
0.22833	0.511
0.23000	0.541
0.23167	0.552
0.23333	0.548
0.23500	0.530
0.23667	0.495
0.23833	0.443
0.24000	0.376
0.24167	0.302
0.24333	0.228
0.24500	0.164
0.24667	0.120
0.24833	0.097
0.25000	0.092
0.25167	0.096
0.25333	0.137
0.25500	0.304
0.25667	0.672
0.25833	1.203
0.26000	1.726
0.26167	2.096
0.26333	2.279
0.26500	2.338
0.26667	2.330
0.26833	2.268
0.27000	2.128
0.27167	1.857
0.27333	1.410
0.27500	0.801
0.27667	0.121
0.27833	-0.503
0.28000	-0.971
0.28167	-1.247
0.28333	-1.356
0.28500	-1.347
0.28667	-1.264
0.28833	-1.131
0.29000	-0.959
0.29167	-0.756
0.29333	-0.544
0.29500	-0.347
0.29667	-0.184
0.29833	-0.055
0.30000	0.049
0.30167	0.140
0.30333	0.222
0.30500	0.296
0.30667	0.357
0.30833	0.401
0.31000	0.424
0.31167	0.425
0.31333	0.406
0.31500	0.371
0.31667	0.326
0.31833	0.279
0.32000	0.236
0.32167	0.203
0.32333	0.177
0.32500	0.156
0.32667	0.139
0.32833	0.130
0.33000	0.131
0.33167	0.146
0.33333	0.172
0.33500	0.207
0.33667	0.251
0.33833	0.306
0.34000	0.382
0.34167	0.492
0.34333	0.652
0.34500	0.886
0.34667	1.240
0.34833	1.881
0.35000	3.301
0.35167	5.868
0.35333	8.928
0.35500	10.743
0.35667	9.924
0.35833	6.993
0.36000	3.726
0.36167	1.490
0.36333	0.405
0.36500	-0.020
0.36667	-0.159
0.36833	-0.181
0.37000	-0.178
0.37167	-0.198
0.37333	-0.255
0.37500	-0.339
0.37667	-0.443
0.37833	-0.561
0.38000	-0.684
0.38167	-0.802
0.38333	-0.907
0.38500	-0.993
0.38667	-1.056
0.38833	-1.088
0.39000	-1.077
0.39167	-1.022
0.39333	-0.933
0.39500	-0.832
0.39667	-0.738
0.39833	-0.660
0.40000	-0.593
0.40167	-0.531
0.40333	-0.474
0.40500	-0.427
0.40667	-0.398
0.40833	-0.385
0.41000	-0.383
0.41167	-0.388
0.41333	-0.397
0.41500	-0.410
0.41667	-0.428
0.41833	-0.450
0.42000	-0.475
0.42167	-0.499
0.42333	-0.519
0.42500	-0.529
0.42667	-0.524
0.42833	-0.503
0.43000	-0.464
0.43167	-0.409
0.43333	-0.341
0.43500	-0.272
0.43667	-0.218
0.43833	-0.191
0.44000	-0.193
0.44167	-0.217
0.44333	-0.251
0.44500	-0.286
0.44667	-0.315
0.44833	-0.334
0.45000	-0.345
0.45167	-0.347
0.45333	-0.340
0.45500	-0.322
0.45667	-0.293
0.45833	-0.249
0.46000	-0.190
0.46167	-0.118
0.46333	-0.041
0.46500	0.034
0.46667	0.096
0.46833	0.138
0.47000	0.156
0.47167	0.154
0.47333	0.135
0.47500	0.106
0.47667	0.070
0.47833	0.032
0.48000	0.002
0.48167	-0.007
0.48333	0.015
0.48500	0.072
0.48667	0.154
0.48833	0.244
0.49000	0.319
0.49167	0.370
0.49333	0.395
0.49500	0.403
0.49667	0.396
0.49833	0.376
0.50000	0.345
0.50167	0.304
0.50333	0.259
0.50500	0.213
0.50667	0.172
0.50833	0.143
0.51000	0.132
0.51167	0.140
0.51333	0.168
0.51500	0.207
0.51667	0.247
0.51833	0.277
0.52000	0.288
0.52167	0.275
0.52333	0.237
0.52500	0.178
0.52667	0.106
0.52833	0.030
0.53000	-0.035
0.53167	-0.074
0.53333	-0.078
0.53500	-0.051
0.53667	-0.005
0.53833	0.048
0.54000	0.100
0.54167	0.152
0.54333	0.208
0.54500	0.273
0.54667	0.348
0.54833	0.424
0.55000	0.483
0.55167	0.495
0.55333	0.435
0.55500	0.297
0.55667	0.098
0.55833	-0.123
0.56000	-0.322
0.56167	-0.469
0.56333	-0.542
0.56500	-0.522
0.56667	-0.376
0.56833	-0.099
0.57000	0.237
0.57167	0.488
0.57333	0.538
0.57500	0.385
0.57667	0.137
0.57833	-0.083
0.58000	-0.196
0.58167	-0.182
0.58333	-0.063
0.58500	0.112
0.58667	0.294
0.58833	0.447
0.59000	0.548
0.59167	0.567
0.59333	0.486
0.59500	0.318
0.59667	0.123
0.59833	-0.018
0.60000	-0.039
0.60167	0.078
0.60333	0.288
0.60500	0.499
0.60667	0.655
0.60833	0.799
0.61000	1.032
0.61167	1.358
0.61333	1.594
0.61500	1.520
0.61667	1.095
0.61833	0.513
0.62000	0.010
0.62167	-0.304
0.62333	-0.453
0.62500	-0.500
0.62667	-0.488
0.62833	-0.412
0.63000	-0.192
0.63167	0.272
0.63333	1.012
0.63500	1.903
0.63667	2.771
0.63833	3.480
0.64000	3.976
0.64167	4.199
0.64333	4.073
0.64500	3.561
0.64667	2.741
0.64833	1.796
0.65000	0.926
0.65167	0.258
0.65333	-0.181
0.65500	-0.432
0.65667	-0.560
0.65833	-0.616
0.66000	-0.641
0.66167	-0.654
0.66333	-0.655
0.66500	-0.629
0.66667	-0.481
0.66833	0.304
0.67000	2.914
0.67167	8.495
0.67333	16.483
0.67500	23.767
0.67667	26.693
0.67833	24.040
0.68000	17.999
0.68167	11.900
0.68333	7.713
0.68500	5.478
0.68667	4.390
0.68833	3.777
0.69000	3.323
0.69167	2.932
0.69333	2.582
0.69500	2.263
0.69667	2.000
0.69833	1.852
0.70000	1.884
0.70167	2.098
0.70333	2.425
0.70500	2.763
0.70667	3.017
0.70833	3.179
0.71000	3.479
0.71167	4.254
0.71333	5.528
0.71500	6.634
0.71667	6.712
0.71833	5.505
0.72000	3.649
0.72167	2.024
0.72333	1.234
0.72500	1.541
0.72667	2.893
0.72833	4.686
0.73000	5.831
0.73167	5.555
0.73333	4.049
0.73500	2.300
0.73667	1.164
0.73833	0.829
0.74000	0.954
0.74167	1.145
0.74333	1.216
0.74500	1.150
0.74667	0.986
0.74833	0.745
0.75000	0.440
0.75167	0.098
0.75333	-0.244
0.75500	-0.545
0.75667	-0.783
0.75833	-0.946
0.76000	-1.037
0.76167	-1.065
0.76333	-1.049
0.76500	-1.015
0.76667	-0.989
0.76833	-0.982
0.77000	-0.991
0.77167	-1.004
0.77333	-1.001
0.77500	-0.930
0.77667	-0.597
0.77833	0.491
0.78000	2.964
0.78167	6.984
0.78333	11.638
0.78500	15.190
0.78667	16.199
0.78833	14.549
0.79000	11.418
0.79167	8.287
0.79333	5.966
0.79500	4.410
0.79667	3.225
0.79833	2.186
0.80000	1.324
0.80167	0.707
0.80333	0.313
0.80500	0.056
0.80667	-0.134
0.80833	-0.293
0.81000	-0.434
0.81167	-0.558
0.81333	-0.667
0.81500	-0.761
0.81667	-0.840
0.81833	-0.901
0.82000	-0.941
0.82167	-0.960
0.82333	-0.943
0.82500	-0.820
0.82667	-0.443
0.82833	0.349
0.83000	1.573
0.83167	2.977
0.83333	4.091
0.83500	4.479
0.83667	4.004
0.83833	2.906
0.84000	1.631
0.84167	0.549
0.84333	-0.196
0.84500	-0.652
0.84667	-0.932
0.84833	-1.122
0.85000	-1.267
0.85167	-1.378
0.85333	-1.457
0.85500	-1.511
0.85667	-1.548
0.85833	-1.580
0.86000	-1.612
0.86167	-1.644
0.86333	-1.672
0.86500	-1.692
0.86667	-1.705
0.86833	-1.712
0.87000	-1.714
0.87167	-1.710
0.87333	-1.695
0.87500	-1.661
0.87667	-1.598
0.87833	-1.502
0.88000	-1.379
0.88167	-1.243
0.88333	-1.119
0.88500	-1.026
0.88667	-0.971
0.88833	-0.951
0.89000	-0.952
0.89167	-0.968
0.89333	-0.998
0.89500	-1.051
0.89667	-1.130
0.89833	-1.233
0.90000	-1.350
0.90167	-1.467
0.90333	-1.581
0.90500	-1.690
0.90667	-1.792
0.90833	-1.883
0.91000	-1.957
0.91167	-2.010
0.91333	-2.036
0.91500	-2.028
0.91667	-1.980
0.91833	-1.901
0.92000	-1.815
0.92167	-1.745
0.92333	-1.692
0.92500	-1.639
0.92667	-1.569
0.92833	-1.481
0.93000	-1.381
0.93167	-1.272
0.93333	-1.160
0.93500	-1.056
0.93667	-0.976
0.93833	-0.926
0.94000	-0.913
0.94167	-0.945
0.94333	-1.031
0.94500	-1.175
0.94667	-1.369
0.94833	-1.586
0.95000	-1.794
0.95167	-1.970
0.95333	-2.102
0.95500	-2.194
0.95667	-2.255
0.95833	-2.298
0.96000	-2.330
0.96167	-2.353
0.96333	-2.367
0.96500	-2.366
0.96667	-2.338
0.96833	-2.254
0.97000	-2.030
0.97167	-1.317
0.97333	1.085
0.97500	7.820
0.97667	22.184
0.97833	45.047
0.98000	71.831
0.98167	93.085
0.98333	100.000
0.98500	90.509
0.98667	70.436
0.98833	48.977
0.99000	32.542
0.99167	22.444
0.99333	16.653
0.99500	12.815
0.99667	9.671
0.99833	6.914
1.00000	4.634
1.00167	2.941
1.00333	1.818
1.00500	1.131
1.00667	0.717
1.00833	0.443
1.01000	0.231
1.01167	0.043
1.01333	-0.137
1.01500	-0.310
1.01667	-0.470
1.01833	-0.614
1.02000	-0.736
1.02167	-0.831
1.02333	-0.895
1.02500	-0.926
1.02667	-0.925
1.02833	-0.903
1.03000	-0.880
1.03167	-0.879
1.03333	-0.912
1.03500	-0.976
1.03667	-1.058
1.03833	-1.142
1.04000	-1.220
1.04167	-1.292
1.04333	-1.362
1.04500	-1.431
1.04667	-1.502
1.04833	-1.574
1.05000	-1.646
1.05167	-1.711
1.05333	-1.758
1.05500	-1.780
1.05667	-1.779
1.05833	-1.765
1.06000	-1.755
1.06167	-1.763
1.06333	-1.791
1.06500	-1.833
1.06667	-1.877
1.06833	-1.910
1.07000	-1.923
1.07167	-1.913
1.07333	-1.882
1.07500	-1.838
1.07667	-1.791
1.07833	-1.750
1.08000	-1.728
1.08167	-1.737
1.08333	-1.781
1.08500	-1.859
1.08667	-1.962
1.08833	-2.076
1.09000	-2.185
1.09167	-2.280
1.09333	-2.357
1.09500	-2.415
1.09667	-2.455
1.09833	-2.471
1.10000	-2.454
1.10167	-2.395
1.10333	-2.295
1.10500	-2.174
1.10667	-2.063
1.10833	-1.992
1.11000	-1.980
1.11167	-2.032
1.11333	-2.132
1.11500	-2.251
1.11667	-2.361
1.11833	-2.444
1.12000	-2.497
1.12167	-2.528
1.12333	-2.547
1.12500	-2.560
1.12667	-2.567
1.12833	-2.568
1.13000	-2.557
1.13167	-2.528
1.13333	-2.471
1.13500	-2.379
1.13667	-2.247
1.13833	-2.073
1.14000	-1.865
1.14167	-1.640
1.14333	-1.429
1.14500	-1.268
1.14667	-1.191
1.14833	-1.217
1.15000	-1.347
1.15167	-1.561
1.15333	-1.819
1.15500	-2.073
1.15667	-2.279
1.15833	-2.423
1.16000	-2.518
1.16167	-2.591
1.16333	-2.663
1.16500	-2.738
1.16667	-2.809
1.16833	-2.862
1.17000	-2.895
1.17167	-2.910
1.17333	-2.916
1.17500	-2.922
1.17667	-2.934
1.17833	-2.954
1.18000	-2.978
1.18167	-3.000
1.18333	-3.017
1.18500	-3.026
1.18667	-3.028
1.18833	-3.025
1.19000	-3.015
1.19167	-2.992
1.19333	-2.955
1.19500	-2.910
1.19667	-2.871
1.19833	-2.849
1.20000	-2.847
1.20167	-2.861
1.20333	-2.886
1.20500	-2.919
1.20667	-2.958
1.20833	-3.003
1.21000	-3.051
1.21167	-3.098
1.21333	-3.141
1.21500	-3.175
1.21667	-3.199
1.21833	-3.213
1.22000	-3.223
1.22167	-3.230
1.22333	-3.237
1.22500	-3.245
1.22667	-3.256
1.22833	-3.267
1.23000	-3.280
1.23167	-3.294
1.23333	-3.309
1.23500	-3.325
1.23667	-3.343
1.23833	-3.359
1.24000	-3.376
1.24167	-3.396
1.24333	-3.420
1.24500	-3.445
1.24667	-3.466
1.24833	-3.480
1.25000	-3.487
1.25167	-3.489
1.25333	-3.485
1.25500	-3.480
1.25667	-3.473
1.25833	-3.462
1.26000	-3.448
1.26167	-3.430
1.26333	-3.411
1.26500	-3.393
1.26667	-3.376
1.26833	-3.360
1.27000	-3.342
1.27167	-3.322
1.27333	-3.299
1.27500	-3.274
1.27667	-3.252
1.27833	-3.232
1.28000	-3.215
1.28167	-3.200
1.28333	-3.184
1.28500	-3.166
1.28667	-3.146
1.28833	-3.126
1.29000	-3.107
1.29167	-3.091
1.29333	-3.081
1.29500	-3.077
1.29667	-3.077
1.29833	-3.079
1.30000	-3.081
1.30167	-3.088
1.30333	-3.096
1.30500	-3.109
1.30667	-3.125
1.30833	-3.144
1.31000	-3.165
1.31167	-3.188
1.31333	-3.213
1.31500	-3.240
1.31667	-3.270
1.31833	-3.302
1.32000	-3.336
1.32167	-3.372
1.32333	-3.410
1.32500	-3.450
1.32667	-3.491
1.32833	-3.527
1.33000	-3.554
1.33167	-3.566
1.33333	-3.558
1.33500	-3.533
1.33667	-3.502
1.33833	-3.480
1.34000	-3.482
1.34167	-3.512
1.34333	-3.562
1.34500	-3.619
1.34667	-3.666
1.34833	-3.695
1.35000	-3.709
1.35167	-3.716
1.35333	-3.721
1.35500	-3.729
1.35667	-3.740
1.35833	-3.752
1.36000	-3.762
1.36167	-3.768
1.36333	-3.771
1.36500	-3.773
1.36667	-3.773
1.36833	-3.768
1.37000	-3.757
1.37167	-3.738
1.37333	-3.714
1.37500	-3.691
1.37667	-3.677
1.37833	-3.674
1.38000	-3.681
1.38167	-3.693
1.38333	-3.706
1.38500	-3.716
1.38667	-3.722
1.38833	-3.727
1.39000	-3.730
1.39167	-3.735
1.39333	-3.746
1.39500	-3.761
1.39667	-3.781
1.39833	-3.801
1.40000	-3.816
1.40167	-3.822
1.40333	-3.816
1.40500	-3.803
1.40667	-3.790
1.40833	-3.779
1.41000	-3.772
1.41167	-3.767
1.41333	-3.763
1.41500	-3.758
1.41667	-3.752
1.41833	-3.746
1.42000	-3.741
1.42167	-3.738
1.42333	-3.739
1.42500	-3.745
1.42667	-3.754
1.42833	-3.765
1.43000	-3.774
1.43167	-3.778
1.43333	-3.776
1.43500	-3.769
1.43667	-3.758
1.43833	-3.749
1.44000	-3.743
1.44167	-3.744
1.44333	-3.751
1.44500	-3.763
1.44667	-3.780
1.44833	-3.798
1.45000	-3.817
1.45167	-3.838
1.45333	-3.863
1.45500	-3.891
1.45667	-3.921
1.45833	-3.953
1.46000	-3.982
1.46167	-4.009
1.46333	-4.033
1.46500	-4.054
1.46667	-4.073
1.46833	-4.091
1.47000	-4.111
1.47167	-4.132
1.47333	-4.154
1.47500	-4.175
1.47667	-4.195
1.47833	-4.210
1.48000	-4.222
1.48167	-4.230
1.48333	-4.236
1.48500	-4.240
1.48667	-4.240
1.48833	-4.239
1.49000	-4.234
1.49167	-4.227
1.49333	-4.218
1.49500	-4.208
1.49667	-4.196
1.49833	-4.184
1.50000	-4.169
1.50167	-4.153
1.50333	-4.136
1.50500	-4.118
1.50667	-4.099
1.50833	-4.080
1.51000	-4.060
1.51167	-4.039
1.51333	-4.019
1.51500	-4.001
1.51667	-3.985
1.51833	-3.970
1.52000	-3.957
1.52167	-3.944
1.52333	-3.932
1.52500	-3.921
1.52667	-3.912
1.52833	-3.905
1.53000	-3.896
1.53167	-3.884
1.53333	-3.866
1.53500	-3.843
1.53667	-3.820
1.53833	-3.800
1.54000	-3.787
1.54167	-3.778
1.54333	-3.773
1.54500	-3.771
1.54667	-3.770
1.54833	-3.770
1.55000	-3.770
1.55167	-3.771
1.55333	-3.774
1.55500	-3.779
1.55667	-3.787
1.55833	-3.795
1.56000	-3.803
1.56167	-3.809
1.56333	-3.812
1.56500	-3.812
1.56667	-3.810
1.56833	-3.807
1.57000	-3.804
1.57167	-3.802
1.57333	-3.801
1.57500	-3.801
1.57667	-3.804
1.57833	-3.808
1.58000	-3.814
1.58167	-3.821
1.58333	-3.830
1.58500	-3.840
1.58667	-3.854
1.58833	-3.872
1.59000	-3.894
1.59167	-3.920
1.59333	-3.949
1.59500	-3.979
1.59667	-4.009
1.59833	-4.038
1.60000	-4.066
1.60167	-4.091
1.60333	-4.117
1.60500	-4.142
1.60667	-4.169
1.60833	-4.197
1.61000	-4.226
1.61167	-4.256
1.61333	-4.287
1.61500	-4.318
1.61667	-4.347
1.61833	-4.376
1.62000	-4.402
1.62167	-4.426
1.62333	-4.446
1.62500	-4.462
1.62667	-4.475
1.62833	-4.485
1.63000	-4.493
1.63167	-4.499
1.63333	-4.504
1.63500	-4.507
1.63667	-4.508
1.63833	-4.509
1.64000	-4.511
1.64167	-4.515
1.64333	-4.520
1.64500	-4.526
1.64667	-4.530
1.64833	-4.533
1.65000	-4.534
1.65167	-4.534
1.65333	-4.533
1.65500	-4.531
1.65667	-4.527
1.65833	-4.519
1.66000	-4.509
1.66167	-4.499
1.66333	-4.491
1.66500	-4.485
1.66667	-4.480
1.66833	-4.473
1.67000	-4.464
1.67167	-4.453
1.67333	-4.442
1.67500	-4.432
1.67667	-4.422
1.67833	-4.411
1.68000	-4.399
1.68167	-4.384
1.68333	-4.368
1.68500	-4.353
1.68667	-4.340
1.68833	-4.333
1.69000	-4.331
1.69167	-4.335
1.69333	-4.341
1.69500	-4.347
1.69667	-4.346
1.69833	-4.337
1.70000	-4.322
1.70167	-4.305
1.70333	-4.293
1.70500	-4.290
1.70667	-4.300
1.70833	-4.321
1.71000	-4.346
1.71167	-4.369
1.71333	-4.386
1.71500	-4.398
1.71667	-4.405
1.71833	-4.412
1.72000	-4.422
1.72167	-4.437
1.72333	-4.456
1.72500	-4.479
1.72667	-4.502
1.72833	-4.524
1.73000	-4.545
1.73167	-4.564
1.73333	-4.579
1.73500	-4.592
1.73667	-4.601
1.73833	-4.608
1.74000	-4.613
1.74167	-4.616
1.74333	-4.616
1.74500	-4.616
1.74667	-4.616
1.74833	-4.615
1.75000	-4.617
1.75167	-4.619
1.75333	-4.623
1.75500	-4.629
1.75667	-4.637
1.75833	-4.648
1.76000	-4.659
1.76167	-4.671
1.76333	-4.684
1.76500	-4.697
1.76667	-4.710
1.76833	-4.722
1.77000	-4.729
1.77167	-4.731
1.77333	-4.730
1.77500	-4.728
1.77667	-4.728
1.77833	-4.732
1.78000	-4.739
1.78167	-4.746
1.78333	-4.753
1.78500	-4.756
1.78667	-4.759
1.78833	-4.760
1.79000	-4.760
1.79167	-4.760
1.79333	-4.761
1.79500	-4.761
1.79667	-4.760
1.79833	-4.759
1.80000	-4.758
1.80167	-4.757
1.80333	-4.756
1.80500	-4.755
1.80667	-4.755
1.80833	-4.754
1.81000	-4.754
1.81167	-4.753
1.81333	-4.752
1.81500	-4.751
1.81667	-4.750
1.81833	-4.748
1.82000	-4.746
1.82167	-4.744
1.82333	-4.741
1.82500	-4.738
1.82667	-4.735
1.82833	-4.732
1.83000	-4.728
1.83167	-4.723
1.83333	-4.718
1.83500	-4.713
1.83667	-4.708
1.83833	-4.703
1.84000	-4.697
1.84167	-4.692
1.84333	-4.687
1.84500	-4.682
1.84667	-4.676
1.84833	-4.671
1.85000	-4.665
1.85167	-4.662
1.85333	-4.658
1.85500	-4.654
1.85667	-4.650
1.85833	-4.645
1.86000	-4.641
1.86167	-4.639
1.86333	-4.637
1.86500	-4.635
1.86667	-4.633
1.86833	-4.631
1.87000	-4.631
1.87167	-4.630
1.87333	-4.629
1.87500	-4.628
1.87666	-4.627
1.87833	-4.628
1.88000	-4.628
1.88166	-4.630
1.88333	-4.631
1.88500	-4.632
1.88666	-4.633
1.88833	-4.635
1.89000	-4.636
1.89166	-4.636
1.89333	-4.636
1.89500	-4.636
1.89666	-4.639
1.89833	-4.643
1.90000	-4.650
1.90166	-4.657
1.90333	-4.662
1.90500	-4.665
1.90666	-4.667
1.90833	-4.670
1.91000	-4.674
1.91166	-4.678
1.91333	-4.683
1.91500	-4.688
1.91666	-4.693
1.91833	-4.697
1.92000	-4.701
1.92166	-4.706
1.92333	-4.712
1.92500	-4.723
1.92666	-4.736
1.92833	-4.751
1.93000	-4.767
1.93166	-4.780
1.93333	-4.792
1.93500	-4.803
1.93666	-4.816
1.93833	-4.829
1.94000	-4.842
1.94166	-4.855
1.94333	-4.864
1.94500	-4.867
1.94666	-4.865
1.94833	-4.859
1.95000	-4.850
1.95166	-4.844
1.95333	-4.839
1.95500	-4.839
1.95666	-4.842
1.95833	-4.848
1.96000	-4.857
1.96166	-4.870
1.96333	-4.884
1.96500	-4.902
1.96666	-4.921
1.96833	-4.942
1.97000	-4.964
1.97166	-4.986
1.97333	-5.007
1.97500	-5.029
1.97666	-5.050
1.97833	-5.070
1.98000	-5.088
1.98166	-5.106
1.98333	-5.121
1.98500	-5.134
1.98666	-5.146
1.98833	-5.158
1.99000	-5.170
1.99166	-5.181
1.99333	-5.191
1.99500	-5.201
1.99666	-5.210
1.99833	-5.218
2.00000	-5.227
}
[PEAK]
{
Peak ID	1
Peak Ref	19
Time	0.2650
Peak	0.1417	0.2833
Intensity	-891.00	-19482.00
Height	50652.11
AreaAbs	2162.6365
Area %BP	13.06
Area %Total	6.97
Width	0.14
}
[PEAK]
{
Peak ID	2
Peak Ref	20
Time	0.3550
Peak	0.3050	0.3883
Intensity	4254.00	-15621.00
Height	161975.00
AreaAbs	1789.8640
Area %BP	10.81
Area %Total	5.76
Width	0.08
}
[PEAK]
{
Peak ID	4
Peak Ref	21
Time	0.6417
Peak	0.6250	0.6617
Intensity	-7179.00	-9393.00
Height	68501.36
AreaAbs	947.0058
Area %BP	5.72
Area %Total	3.05
Width	0.04
}
[PEAK]
{
Peak ID	5
Peak Ref	22
Time	0.6767
Peak	0.6633	0.6983
Intensity	-9407.00	-7111.00
Height	391940.34
AreaAbs	4275.8994
Area %BP	25.82
Area %Total	13.77
Width	0.03
}
[PEAK]
{
Peak ID	6
Peak Ref	23
Time	0.7167
Peak	0.6983	0.7233
Intensity	-7111.00	-5471.00
Height	102312.34
AreaAbs	1466.5786
Area %BP	8.86
Area %Total	4.72
Width	0.02
}
[PEAK]
{
Peak ID	7
Peak Ref	24
Time	0.7300
Peak	0.7233	0.7533
Intensity	-5471.00	-3503.00
Height	88793.66
AreaAbs	998.2957
Area %BP	6.03
Area %Total	3.22
Width	0.03
}
[PEAK]
{
Peak ID	8
Peak Ref	25
Time	0.7867
Peak	0.7733	0.8100
Intensity	-14375.00	-6228.00
Height	244084.47
AreaAbs	2849.0947
Area %BP	17.20
Area %Total	9.18
Width	0.04
}
[PEAK]
{
Peak ID	12
Peak Ref	26
Time	0.9833
Peak	0.9667	1.0133
Intensity	-33576.00	-1972.00
Height	1458640.88
AreaAbs	16560.6445
Area %BP	100.00
Area %Total	53.34
Width	0.05
}
}
}
[FUNCTION]
{
Function	0
Description	ANALOG
}
[ACCEPTANCE CRITERIA]
{
Threshold Mode (MS+)	Relative
Threshold (MS+)	20.00
Confirmation Threshold (MS+)	50.00
 	 
Threshold Mode (MS-)	Relative
Threshold (MS-)	20.00
Confirmation Threshold (MS-)	50.00
 	 
 	 
Accurate Mass Primary Threshold	False
Accurate Mass Primary Threshold Value (PPM)	5.00
Accurate Mass Secondary Threshold	False
Accurate Mass Secondary Threshold Value (PPM)	10.00
 	 
 	 
Enable Chromatogram Test	False
Chromatogram Test Primary Threshold (%)	30
Chromatogram Test Use Secondary Threshold	False
Chromatogram Test Secondary Threshold (%)	0
 	 
 	 
Use iFit (norm) Value as Confirmation Test	False
iFit Test Primary Threshold
iFit Test Use Secondary Threshold	False
iFit Test Secondary Threshold
 	 
 	 
Chromatogram Internal Standard Enabled	False
IS Function	1
IS Adducted Mass	0.00
IS Mass Window	0.00
IS Intensity Threshold	0.00
}
[INLET PARAMETERS]
{
-- HEADER --
Header
Acquired File Name:   12379-80_8807
Acquired Date:        02-Jan-2018
Acquired Time:        17:17:19
Job Code:             12379-80_8807
Task Code:            
User Name:            
Laboratory Name:      
Instrument:           ACQ-QDA#KAD2940
Conditions:           
Submitter:            lzhao
SampleID:             12379-80
Bottle Number:        2:9
Description:          
-- END HEADER --
-- CALIBRATION --

Instrument Calibration: 
Calibration File: C:\MassLynx\IntelliStart.pro\AcquDB\AutoCal.cal
Parameters
MS1 Static:       
Mass:             30 Da to 1250 Da.
Resolution:       -0.0/0.1
Ion Energy:       -0.3
Reference File:   Internal
Acquisition File: 
MS1 Scanning:     
Mass:             30 Da to 1250 Da.
Resolution:       -0.0/0.1
Ion Energy:       -0.3
Reference File:   Internal
Acquisition File: 
MS1 Scan Speed Compensation:   
Scan:             40 to 10000 amu/sec.
Resolution:       -0.0/0.1
Ion Energy:       -0.3
Reference File:   Internal
Acquisition File: 
Calibration Time: 09:37
Calibration Date: 02/14/17
Coefficients
MS1 Static:       0.000000000000*x^4 + -0.000000000840*x^3 + 0.000000146904*x^2 + 1.000241519260*x +-0.013181128121
Function 1:       0.000000000001*x^4 + -0.000000002388*x^3 + 0.000001704801*x^2 + 0.999650268115*x +0.038695568831
Function 2:       None

-- END CALIBRATION --
-- TUNE --

-- END TUNE --
-- MS --


Parameters for C:\MassLynx\INCYTE.PRO\ACQUDB\standard.EXP

Prescan Statistics:
Initial Average Intensity	368.6606
Initial Average Std Dev		1.0958
Bunch Zero Level		0.0000
Bunch Std Dev			0.0000
Bunch Threshold			0.0000
Spike Removal Std Dev		1.0983
Ion Count Threshold:		25.0000


Data Processing:
Targeted Sampling Frequency	5
Actual Sampling Frequency	5.000
SIR Chromatogram Spike Removal	ON
SIR Smoothing			OFF
Smoothing window size (scans)	3
Number of smooths		2


Method Events:
Initial Stop Flow:	No Change
Initial Switch 1:	No Change
Timed Events Enabled
Event	Time(Sec)	Name		Action


Instrument Parameters - Function 1:
Polarity			ES+
Calibration			Dynamic 2
Capillary (kV)              	0.80
Cone (V)                    	15.00
Source Temperature (°C)     	120
Probe Temperature (°C)      	600
Calibration Temperature (°C)	0


Engineers Settings:
LM 1 Resolution   	0.00
HM 1 Resolution   	0.00
Low Mass Ion Energy 1	-0.85
High Mass Ion Energy 1	0.21
Low Mass Position 	0.65
High Mass Position	-0.54
Low Mass Setup    	0.51
High Mass Setup   	-11.69
Detector Gain Positive	1.0
Detector Gain Negative	1.0
Nominal Rod Polarity	Negative
Dynamic Offset Positive Settings:
Dynamic Offset Low Mass Resolution	0.45
Dynamic Offset High Mass Resolution	-0.32
Dynamic Offset Low Mass Ion Energy	0.00
Dynamic Offset High Mass Ion Energy	0.54

Dynamic Offset Negative Settings:
Dynamic Offset Low Mass Resolution	0.49
Dynamic Offset High Mass Resolution	-0.32
Dynamic Offset Low Mass Ion Energy	0.00
Dynamic Offset High Mass Ion Energy	0.59

Dynamic Offset Settings:
Dynamic Offset Low Mass Position	-0.10
Dynamic Offset High Mass Position	-0.96
Dynamic Offset Low Mass Setup	0.00
Dynamic Offset High Mass Setup	0.00
Dynamic Offset Linearity Gain	-5.82


Set Detector Gain	1.0

Instrument Readbacks   
Capillary (kV)              	0.80
Cone (V)                    	18.89
Source Temperature (°C)     	124
Multiplier        	378
Probe Temperature (°C)      	600
Calibration Temperature (°C)	28


Inter-scan delays:
Automatic Mode
MS Delay Table
         R     delay
<=  16.000     0.005
>   16.000     0.006


Health Check Failures:
All Health Checks Passed


Health Checks all enabled unless shown below:
All Health Checks Enabled


-- END MS --
-- INLET --


ACE Experimental Record


Inlet Method File: c:\masslynx\incyte.pro\acqudb\acn_tfa

-------------------   Prerun method parameters   ---------------

-- PUMP --

Waters Acquity SDS
 Run Time: 1.00 min
 Comment:  
 Solvent Selection A: A1 
 Solvent Selection B: B1 
 Low Pressure Limit: 0 psi
 High Pressure Limit: 18000 psi
 Solvent Name A: Water/0.05%TFA 
 Solvent Name B: Acetonitrile 
 Switch 1: No Change 
 Switch 2: No Change 
 Switch 3: No Change 
 Seal Wash: 1.0 min
 Chart Out 1: System Pressure 
 Chart Out 2: %B 
 System Pressure Data Channel: Yes 
 Flow Rate Data Channel: No 
 %A Data Channel: No 
 %B Data Channel: No 
 Primary A Pressure Data Channel: No 
 Accumulator A Pressure Data Channel: No 
 Primary B Pressure Data Channel: No 
 Accumulator B Pressure Data Channel: No 
 Degasser Pressure Data Channel: No 
 [Gradient Table]
  Time(min) Flow Rate %A %B Curve 
 1. Initial 0.750 0.0 100.0 Initial 
 2. 0.10 1.000 0.0 100.0 6 
 3. 0.40 1.000 0.0 100.0 6 
 4. 0.50 1.000 98.0 2.0 6 
 Run Events: Yes 
 Gradient Start (Relative to Injection): 0 uL
 2D Repeat: No 

-- END PUMP --

-- DETECTOR -- 

Waters Acquity PDA

 Run Time: 1.00 min
 PDA Detector Type: UPLC LG 500 nm 
 Lamp: On 
 Sampling Rate: 10 points/sec
 Filter Time Constant: 0.1000 sec
 Exposure Time: Auto msec
 Interpolate 2nd order filter Region: No 
 Use UV Blocking Filter: No 
3D Channel...
 Range: 210  - 400  
 Resolution: 1.2 nm
 Initial Switch 1: No Change 
 Initial Switch 2: No Change 


-- END DETECTOR --

-- DETECTOR -- 

Waters Acquity CM

 Target Column Temperature: 45.0 C
 Temperature Alarm Band: 5.0 C
 Shutdown all columns: No 
 Column Valve Position: Column 1 
 Equilibration Time: 0.1 min
 External Valve 1: No Change 
 External Valve 2: No Change 
 External Valve 3: No Change 
 Comment:  
 Column Temperature Data Channel: No 
 Preheater Temperature Data Channel: No 


-- END DETECTOR --

----------------------------  oOo  -----------------------------

---------------------   Run method parameters   ----------------

-- PUMP --

Waters Acquity SDS
 Run Time: 2.05 min
 Comment:  
 Solvent Selection A: A1 
 Solvent Selection B: B1 
 Low Pressure Limit: 1000 psi
 High Pressure Limit: 18000 psi
 Solvent Name A: Water/0.05%TFA 
 Solvent Name B: Acetonitrile 
 Switch 1: No Change 
 Switch 2: No Change 
 Switch 3: No Change 
 Seal Wash: 2.0 min
 Chart Out 1: System Pressure 
 Chart Out 2: %B 
 System Pressure Data Channel: Yes 
 Flow Rate Data Channel: No 
 %A Data Channel: No 
 %B Data Channel: No 
 Primary A Pressure Data Channel: No 
 Accumulator A Pressure Data Channel: No 
 Primary B Pressure Data Channel: No 
 Accumulator B Pressure Data Channel: No 
 Degasser Pressure Data Channel: No 
 [Gradient Table]
  Time(min) Flow Rate %A %B Curve 
 1. Initial 1.000 98.0 2.0 Initial 
 2. 2.00 1.000 0.0 100.0 6 
 3. 2.05 0.000 0.0 100.0 6 
 Run Events: Yes 
 Gradient Start (Relative to Injection): 0 uL
 2D Repeat: No 

-- END PUMP --

-- DETECTOR -- 

Waters Acquity PDA

 Run Time: 2.00 min
 PDA Detector Type: UPLC LG 500 nm 
 Lamp: On 
 Sampling Rate: 10 points/sec
 Filter Time Constant: 0.1000 sec
 Exposure Time: Auto msec
 Interpolate 2nd order filter Region: No 
 Use UV Blocking Filter: No 
3D Channel...
 Range: 210  - 400  
 Resolution: 1.2 nm
Analog 1...
 2D Channel: 1 
 Full Scale Range: 2.000 units
 Full Scale Voltage: 2000 mV
 Voltage Offset: 0 mV
Analog 2...
 2D Channel: 2 
 Full Scale Range: 2.000 units
 Full Scale Voltage: 2000 mV
 Voltage Offset: 0 mV
 Initial Switch 1: No Change 
 Initial Switch 2: No Change 


-- END DETECTOR -- 

-- DETECTOR -- 

Waters Acquity CM

 Target Column Temperature: 45.0 C
 Temperature Alarm Band: 5.0 C
 Shutdown all columns: No 
 Column Valve Position: Column 1 
 Equilibration Time: 0.1 min
 External Valve 1: No Change 
 External Valve 2: No Change 
 External Valve 3: No Change 
 Comment:  
 Column Temperature Data Channel: No 
 Preheater Temperature Data Channel: No 


-- END DETECTOR -- 

-- AUTOSAMPLER --

CTC PAL Method Parameters

MacroValues = LC-Inj(0,0,0,0,10,1,LC Vlv1,5,500,500,0,2,0,4)

SyringeSize = 25ul

MacroLine
001: Air Volume (µl);0;0;SYR.Max Volume
002: Pre Clean with Solvent 1 ();0;0;99
003: Pre Clean with Solvent 2 ();0;0;99
004: Pre Clean with Sample ();0;0;99
005: Filling Speed (µl/s);SYR.Fill Speed;SYR.Min Speed;SYR.Max Speed
006: Filling Strokes ();1;0;99
007: Inject to;INJECTOR
008: Injection Speed (µl/s);SYR.Inject Speed;SYR.Min Speed;SYR.Max Speed
009: Pre Inject Delay (ms);500;0;99000
010: Post Inject Delay (ms);500;0;99000
011: Post Clean with Solvent 1 ();1;0;99
012: Post Clean with Solvent 2 ();1;0;99
013: Valve Clean with Solvent 1 ();1;0;99
014: Valve Clean with Solvent 2 ();1;0;99

ATOM
001: CLEANUP(Wash1,Off,Off,On,Off,On,Off,Off,)
002: WAIT_SYNC_SIG(Start,)
003: CLEAN_SYR(Wash1,Pre Clean with Solvent 1,,,,,,,)
004: CLEAN_SYR(Wash2,Pre Clean with Solvent 2,,,,,,,)
005: REPEAT(Pre Clean with Sample,)
006: GET_SAMPLE(SL.tray,SL.index,SL.volume,,,,Filling Speed,,,0,Off,,,)
007: PUT_SAMPLE(Waste,1,,,,,)
008: END()
009: GET_SAMPLE(SL.tray,SL.index,SL.volume,Air Volume,,,Filling Speed,,,Filling Strokes,Off,,,)
010: MOVETO_OBJECT(Inject to,1,,)
011: WAIT_FOR_DS()
012: INJ_SAMPLE(Inject to,Inject,Injected,,,Pre Inject Delay,Injection Speed,Post Inject Delay,1,)
013: SET_INJECTED()
014: CLEAN_SYR(Wash1,Post Clean with Solvent 1,,,,,,,)
015: CLEAN_SYR(Wash2,Post Clean with Solvent 2,,,,,,,)
016: CLEAN_INJ(Wash1,Inject to,Valve Clean with Solvent 1,,,,,,,,Injection Speed,)
017: CLEAN_INJ(Wash2,Inject to,Valve Clean with Solvent 2,,,,,,,,Injection Speed,)
018: CLEANUP(Wash1,Off,Off,Off,On,Off,Off,On,)


Sample Run Injection Parameter

Injection Volume (ul)   -   1.00
-- END AUTOSAMPLER --

----------------------------  oOo  -----------------------------


End of experimental record.

------------------- Generic Instrument Postrun Report  ---------------


 Software Version: 1.67.1634 
 Firmware Version: 1.65.6229 (May 07 2015) 
 Checksum: 0xdc2f6074 
 Serial Number: K16UPD805A 
 Lamp On/Off Event: No 
 Lamp Life: 4139.00 hours
 Lamp Serial Number: 11DE9F4F 
 Exposure Time: 33.333 msec
 Lambda1: 187.620 
 Lambda512: 502.612 
 Flow Cell Type: Analytical LG 
 Flow Cell Path Length: 0.000 mm
 Flow Cell Volume: 0.000 microliters
 Flow Cell Serial Number:  
 Flow Cell Part Number:  
 Optics Temperature Stabilzation Setting: Normal Temperature 

----------------------------  oOo  -----------------------------

---------------Failed to get IECordHost2 Interface ---------



------------------- Waters Acquity CM Postrun Report  ---------------



 Software Version: 1.67.2398 
 Firmware Version: 1.65.142 (Apr 02 2015) 
 Checksum: 0x18bfb4ea 
 Serial Number: J16CMP847G 
 Valve Position: 1 
 ColumnType: ACQUITY UPLC® BEH C18 1.7µm 
 Column Serial Number: 02943709615127 
 Column Part Number: 186002350 
 Total Injections on Column: 1080 
 Minimum Column Temperature: 45.0 C
 Maximum Column Temperature: 45.0 C
 Average Column Temperature: 45.0 C

----------------------------  oOo  -----------------------------

------------------- Active eCord Data ---------------


Valve Current Position: 1
Column Name: ACQUITY UPLC® BEH C18 1.7µm
Part Number: 186002350
Serial Number: 02943709615127
Injection Count: 1080
Injection Count Threshold: 0
Date of First Injection: 10/12/2017  9:59:5 AM
Date of Last Injection: 1/2/2018  5:18:41 PM
Sample Count: 1080
Sample Set Count: 562
Maximum Pressure: 17215 psi
Date of Maximum Pressure: 10/17/2017  11:8:48 AM
Maximum Temperature: 45.1 °C
Date of Maximum Temperature: 1/2/2018  9:32:32 AM

----------------------------  oOo  -----------------------------





------------------- Waters Acquity SDS Postrun Report  ---------------



 IcsVersion: 1.67.2193 
 FirmwareVersion: 1.65.273 (Feb 27 2015) 
 Checksum: 0x3462a3f3 
 SerialNumber: M16BUR199G 
 Minimum System Pressure: 40.8 
 Maximum System Pressure: 13231.3 
 Average System Pressure: 8266.0 
 Minimum Degasser Pressure: 0.5 
 Maximum Degasser Pressure: 0.5 
 Average Degasser Pressure: 0.5 

----------------------------  oOo  -----------------------------



-- END INLET --

-- FRACTION --


-- END FRACTION --
-- FUNCTION --

Function 1
Scans in function:         601
Cycle time (secs):         Automatic
Scan duration (secs):      0.195
Inter Scan Delay (secs):   Automatic
Start and End Time(mins):   0.000 to 2.000
Ionization mode:           ES+
Data type:                 Enhanced Mass
Function type:             Scan                       
Mass range:                 105 to 900

Function 2
Scans in function:         1201
Function type:             Diode Array
Wavelength range (nm):      210 to 400

-- END FUNCTION --

}
}
